File: Data_Lola/CoNiFeNx_400ºC_24h_13102022/Electrodes_20012023/Set 1/2023_01_20_CoNiFeNx_400ºC_24h_electrode2_set1_20012023_1_C01.mpt
EC-Lab ASCII FILE
Nb header lines : 57

Cyclic Voltammetry

Run on channel : 1 (SN 21648)
User :
CE vs. WE compliance from -10 V to 10 V
Electrode connection : standard
Potential control : Ewe
Ewe ctrl range : min = -2.50 V, max = 2.50 V
Safety Limits :
	Do not start on E overload
Acquisition started on : 01/20/2023 15:58:04.450
Loaded Setting File :  NONE
Saved on :
	File : 2023_01_20_CoNiFeNx_400ºC_24h_electrode2_set1_20012023_1_C01.mpr
	Directory : C:\Users\grupogalan\Documents\EC-Lab\Data\Lole Jurado\
	Host : 169.254.104.159
Device : VSP (SN 1176)
Address : USB
EC-Lab for windows v11.46 (software)
Internet server v11.40 (firmware)
Command interpretor v11.40 (firmware)
Electrode material :
Initial state :
Electrolyte :
Comments :
Electrode surface area : 0.000 cm²
Characteristic mass : 0.001 g
Equivalent Weight : 0.000 g/eq.
Density : 0.000 g/cm3
Volume (V) : 0.001 cm³
Cycle Definition : Charge/Discharge alternance
Ei (V)              0.000
vs.                 Eoc
dE/dt               10.000
dE/dt unit          mV/s
E1 (V)              1.000
vs.                 Ref
Step percent        50
N                   10
E range min (V)     -2.500
E range max (V)     2.500
I Range             Auto
I Range min         Unset
I Range max         Unset
I Range init        Unset
Bandwidth           5
E2 (V)              0.000
vs.                 Ref
nc cycles           2
Reverse Scan        1
Ef (V)              0.000
vs.                 Eoc

mode	ox/red	error	control changes	counter inc.	time/s	control/V	Ewe/V	<I>/mA	cycle number	(Q-Qo)/C	I Range	P/W
2	0	0	0	0	0.000000000000000E+000	-0.160403	-0.156026	-0.00976333	1	0.0000000E+000	13	1.52334e-06
2	0	0	1	0	4.4852	-0.115553	-0.115202	0.0019988	1	6.00009e-06	12	-2.30265e-07
2	1	0	1	0	8.9852	-0.0705516	-0.0701839	0.00252588	1	1.98135e-05	12	-1.77276e-07
2	0	0	0	0	13.4854	-0.0255508	-0.0278646	0.00382696	1	3.87287e-05	12	-1.06637e-07
2	1	0	0	0	17.9854	0.0194501	0.0212869	0.00507484	1	6.15282e-05	12	1.08028e-07
2	1	0	1	0	22.4856	0.0644509	0.0664553	0.00579028	1	8.78782e-05	12	3.84795e-07
2	1	0	1	0	26.9856	0.109452	0.105122	0.00664564	1	0.00011872	12	6.98606e-07
2	0	0	1	0	31.4856	0.154453	0.154618	0.00894095	1	0.000155536	12	1.38243e-06
2	1	0	0	0	35.9858	0.199453	0.197953	0.0114935	1	0.000204669	12	2.27518e-06
2	1	0	0	0	40.4858	0.244454	0.245879	0.0156863	1	0.000269742	12	3.85693e-06
2	1	0	1	0	44.986	0.289455	0.286559	0.0216806	1	0.000354943	12	6.21277e-06
2	1	0	1	0	49.486	0.334456	0.335354	0.0311579	1	0.000475343	12	1.04489e-05
2	1	0	0	0	53.9862	0.379457	0.379375	0.0487577	1	0.000657431	12	1.84974e-05
2	1	0	0	0	58.4862	0.424458	0.421005	0.073974	1	0.000931889	12	3.11434e-05
2	1	0	0	0	62.9862	0.469458	0.4704	0.114615	1	0.0013537	12	5.39148e-05
2	1	0	1	0	67.4864	0.514459	0.51331	0.159999	1	0.00197596	12	8.21292e-05
2	1	0	1	0	71.9864	0.55946	0.558837	0.206708	1	0.00280211	12	0.000115516
2	1	0	0	0	76.4866	0.604461	0.603142	0.313352	1	0.00392407	12	0.000188996
2	1	0	0	0	80.9866	0.649462	0.648119	0.81628	1	0.00622112	12	0.000529047
2	1	0	1	0	85.5168	0.694763	0.698259	2.24997	1	0.0127456	11	0.00157106
2	1	0	1	0	90.0168	0.739763	0.738286	4.95915	1	0.0284447	11	0.00366127
2	1	0	1	0	94.5168	0.784764	0.786496	9.26625	1	0.0598199	11	0.00728787
2	1	0	0	0	99.047	0.830065	0.829384	15.4553	1	0.115159	10	0.0128184
2	1	0	0	0	103.547	0.875066	0.874171	23.5748	1	0.202262	10	0.0206084
2	1	0	1	0	108.047	0.920067	0.921399	33.8922	1	0.330955	10	0.0312282
2	1	0	1	0	112.547	0.965068	0.96526	45.4582	1	0.50951	10	0.043879
2	1	0	0	0	116.898	0.991468	0.988509	50.7838	1	0.728561	10	0.0502002
2	1	0	0	0	121.398	0.946467	0.944414	36.4663	1	0.923348	10	0.0344393
2	1	0	0	0	125.898	0.901466	0.904919	25.0442	1	1.06077	10	0.022663
2	1	0	1	0	130.398	0.856466	0.855023	16.1166	1	1.15246	10	0.01378
2	1	0	1	0	134.898	0.811465	0.810116	9.72536	1	1.20972	10	0.00787867
2	1	0	0	0	139.398	0.766464	0.769461	5.48766	1	1.24327	10	0.00422254
2	1	0	0	0	143.928	0.721163	0.719841	2.82222	1	1.26159	11	0.00203155
2	1	0	1	0	148.428	0.676162	0.674506	1.26548	1	1.27045	11	0.000853573
2	1	0	1	0	152.928	0.631161	0.630461	0.444219	1	1.27406	11	0.000280063
2	1	0	1	0	157.458	0.58586	0.579802	0.10247	1	1.27516	12	5.94123e-05
2	1	0	0	0	161.959	0.54086	0.542561	0.00541477	1	1.27534	12	2.93784e-06
2	1	0	0	0	166.459	0.495859	0.493629	-0.01696	1	1.2753	12	-8.37194e-06
2	0	0	1	0	170.959	0.450858	0.450541	-0.0233886	1	1.27521	12	-1.05375e-05
2	0	0	1	0	175.459	0.405857	0.405484	-0.0254817	1	1.27509	12	-1.03324e-05
2	0	0	0	0	179.959	0.360856	0.360965	-0.0266158	1	1.27497	12	-9.60738e-06
2	0	0	0	0	184.459	0.315856	0.316362	-0.0273918	1	1.27485	12	-8.66574e-06
2	0	0	0	0	188.959	0.270855	0.271208	-0.0246917	1	1.27473	12	-6.69659e-06
2	0	0	1	0	193.459	0.225854	0.22849	-0.0210833	1	1.27462	12	-4.81732e-06
2	0	0	1	0	197.959	0.180853	0.181043	-0.018154	1	1.27453	12	-3.28665e-06
2	1	0	0	0	202.459	0.135852	0.136584	-0.0163353	1	1.27445	12	-2.23114e-06
2	0	0	0	0	206.959	0.0908514	0.0882599	-0.0137886	1	1.27439	12	-1.21698e-06
2	0	0	1	0	211.46	0.0458505	0.0441713	-0.0117055	1	1.27433	12	-5.17049e-07
2	0	0	1	0	215.96	0.000849706	0.00432145	-0.0104998	1	1.27428	12	-4.53742e-08
2	0	0	0	1	220.3	0.0425505	0.0405361	-0.00576088	2	1.27424	12	-2.33524e-07
2	0	0	1	1	224.8	0.0875513	0.0891965	-0.00439226	2	1.27422	12	-3.91774e-07
2	0	0	1	1	229.3	0.132552	0.130619	-0.0021747	2	1.27421	12	-2.84058e-07
2	0	0	0	1	233.801	0.177553	0.175578	-9.84259e-05	2	1.27421	12	-1.72814e-08
2	1	0	0	1	238.301	0.222554	0.2207	0.00262907	2	1.27422	12	5.80235e-07
2	1	0	1	1	242.801	0.267555	0.268087	0.00566428	2	1.27424	12	1.51852e-06
2	1	0	1	1	247.301	0.312555	0.310102	0.0113277	2	1.27427	12	3.51274e-06
2	1	0	1	1	251.801	0.357556	0.358146	0.0180375	2	1.27434	12	6.46004e-06
2	1	0	0	1	256.301	0.402557	0.402593	0.0297265	2	1.27445	12	1.19677e-05
2	1	0	0	1	260.801	0.447558	0.445064	0.0426358	2	1.27461	12	1.89756e-05
2	1	0	1	1	265.301	0.492559	0.493049	0.0550319	2	1.27484	12	2.71334e-05
2	1	0	1	1	269.801	0.53756	0.53923	0.0689499	2	1.27512	12	3.71798e-05
2	1	0	1	1	274.301	0.58256	0.579496	0.0988396	2	1.27549	12	5.72772e-05
2	1	0	0	1	278.801	0.627561	0.629871	0.271502	2	1.27622	12	0.000171011
2	1	0	0	1	283.301	0.672562	0.672275	0.901695	2	1.27862	12	0.000606188
2	1	0	1	1	287.832	0.717863	0.712176	2.43146	2	1.28576	11	0.00173163
2	1	0	1	1	292.332	0.762864	0.764518	5.28132	2	1.30255	11	0.00403766
2	1	0	0	1	296.832	0.807865	0.807425	9.86996	2	1.33596	11	0.00796925
2	1	0	0	1	301.362	0.853166	0.856212	16.3185	2	1.39469	10	0.0139721
2	1	0	1	1	305.862	0.898166	0.896965	24.3273	2	1.4856	10	0.0218208
2	1	0	1	1	310.362	0.943167	0.946627	33.5888	2	1.61553	10	0.0317961
2	1	0	1	1	314.862	0.988168	0.987382	43.8703	2	1.78957	10	0.0433167
2	1	0	0	1	319.203	0.968468	0.969588	37.7563	2	1.97614	10	0.0366081
2	1	0	0	1	323.703	0.923467	0.919905	26.8205	2	2.12075	10	0.0246724
2	1	0	1	1	328.203	0.878466	0.880086	17.96	2	2.22075	10	0.0158063
2	1	0	1	1	332.703	0.833465	0.833828	11.165	2	2.28544	10	0.0093097
2	1	0	0	1	337.203	0.788464	0.786329	6.43346	2	2.32426	10	0.00505882
2	1	0	0	1	341.733	0.743163	0.742554	3.37191	2	2.34589	11	0.00250383
2	1	0	0	1	346.233	0.698163	0.698359	1.5792	2	2.35664	11	0.00110285
2	1	0	1	1	350.733	0.653162	0.650969	0.614727	2	2.36131	11	0.000400168
2	1	0	1	1	355.263	0.607861	0.612944	0.176381	2	2.36294	12	0.000108112
2	1	0	0	1	359.763	0.56286	0.56464	0.0294672	2	2.36333	12	1.66384e-05
2	0	0	0	1	364.263	0.517859	0.518094	-0.00825871	2	2.36335	12	-4.27879e-06
2	1	0	1	1	368.764	0.472858	0.471667	-0.0178687	2	2.36329	12	-8.42808e-06
2	0	0	1	1	373.264	0.427858	0.431986	-0.0214425	2	2.3632	12	-9.26287e-06
2	0	0	1	1	377.764	0.382857	0.381555	-0.0229186	2	2.36309	12	-8.7447e-06
2	0	0	0	1	382.264	0.337856	0.337699	-0.0242015	2	2.36298	12	-8.17284e-06
2	0	0	0	1	386.764	0.292855	0.29532	-0.0239127	2	2.36287	12	-7.06191e-06
2	1	0	1	1	391.264	0.247854	0.245873	-0.0213595	2	2.36276	12	-5.25173e-06
2	0	0	1	1	395.764	0.202853	0.201272	-0.0189483	2	2.36267	12	-3.81376e-06
2	0	0	0	1	400.264	0.157853	0.160804	-0.0163568	2	2.36259	12	-2.63023e-06
2	0	0	0	1	404.764	0.112852	0.112432	-0.0139433	2	2.36252	12	-1.56767e-06
2	0	0	0	1	409.264	0.0678509	0.0691835	-0.0122386	2	2.36246	12	-8.46709e-07
2	0	0	1	1	413.764	0.0228501	0.0225046	-0.0117712	2	2.3624	12	-2.64907e-07
2	1	0	0	0	418.105	0.0205501	0.0205539	-0.00814254	3	2.36236	12	-1.67361e-07
2	0	0	1	0	422.605	0.0655509	0.0659196	-0.0047347	3	2.36233	12	-3.1211e-07
2	0	0	1	0	427.105	0.110552	0.109146	-0.00289464	3	2.36232	12	-3.15938e-07
2	0	0	1	0	431.605	0.155553	0.155088	-0.00091098	3	2.36231	12	-1.41282e-07
2	1	0	0	0	436.105	0.200553	0.199239	0.000324652	3	2.36231	12	6.46832e-08
2	0	0	0	0	440.605	0.245554	0.244399	0.00348007	3	2.36232	12	8.50525e-07
2	1	0	1	0	445.106	0.290555	0.289938	0.00756734	3	2.36234	12	2.19406e-06
2	1	0	1	0	449.606	0.335556	0.333294	0.0124747	3	2.36239	12	4.15773e-06
2	1	0	0	0	454.106	0.380557	0.383637	0.0199793	3	2.36246	12	7.66479e-06
2	0	0	0	0	458.606	0.425558	0.425614	0.0311166	3	2.36258	12	1.32437e-05
2	1	0	0	0	463.106	0.470558	0.470463	0.0421348	3	2.36274	12	1.98229e-05
2	1	0	1	0	467.606	0.515559	0.515193	0.0531465	3	2.36296	12	2.73807e-05
2	1	0	1	0	472.106	0.56056	0.559772	0.0669733	3	2.36323	12	3.74898e-05
2	1	0	0	0	476.606	0.605561	0.603573	0.127662	3	2.36364	12	7.70536e-05
2	1	0	0	0	481.106	0.650562	0.651011	0.414906	3	2.36473	12	0.000270108
2	1	0	1	0	485.636	0.695863	0.695283	1.27021	3	2.36826	11	0.000883154
2	1	0	1	0	490.136	0.740863	0.741091	3.10873	3	2.37767	11	0.00230385
2	1	0	1	0	494.636	0.785864	0.784488	6.38851	3	2.39844	11	0.00501171
2	1	0	0	0	499.167	0.831165	0.829715	11.4366	3	2.43818	10	0.00948913
2	1	0	0	0	503.667	0.876166	0.877409	18.0919	3	2.50412	10	0.015874
2	1	0	1	0	508.167	0.921167	0.920091	26.025	3	2.60303	10	0.0239453
2	1	0	1	0	512.667	0.966168	0.965597	34.8871	3	2.73993	10	0.0336869
2	1	0	0	0	517.007	0.990468	0.989971	39.517	3	2.90928	10	0.0391207
2	1	0	0	0	521.507	0.945467	0.94853	28.5287	3	3.06159	10	0.0270603
2	1	0	0	0	526.007	0.900466	0.900267	19.5883	3	3.16911	10	0.0176347
2	1	0	1	0	530.508	0.855465	0.851636	12.6245	3	3.24079	10	0.0107514
2	1	0	1	0	535.008	0.810465	0.813615	7.55883	3	3.28549	10	0.00614997
2	1	0	0	0	539.538	0.765164	0.764061	4.11937	3	3.31137	11	0.00314745
2	1	0	0	0	544.038	0.720163	0.716395	2.02039	3	3.32475	11	0.0014474
2	1	0	1	0	548.538	0.675162	0.672473	0.849316	3	3.33092	11	0.000571142
2	1	0	1	0	553.068	0.629861	0.630145	0.282905	3	3.3333	12	0.000178271
2	1	0	1	0	557.568	0.584861	0.585559	0.0672308	3	3.33399	12	3.93676e-05
2	1	0	0	0	562.068	0.53986	0.537751	0.0053382	3	3.33412	12	2.87063e-06
2	0	0	0	0	566.568	0.494859	0.494634	-0.0107319	3	3.33409	12	-5.30838e-06
2	1	0	1	0	571.068	0.449858	0.450482	-0.0166309	3	3.33403	12	-7.49191e-06
2	1	0	1	0	575.568	0.404857	0.402639	-0.0194239	3	3.33394	12	-7.82083e-06
2	1	0	0	0	580.069	0.359856	0.357738	-0.0213144	3	3.33385	12	-7.62494e-06
2	0	0	0	0	584.569	0.314856	0.315633	-0.0217285	3	3.33375	12	-6.85822e-06
2	0	0	0	0	589.069	0.269855	0.26949	-0.0205372	3	3.33365	12	-5.53457e-06
2	0	0	1	0	593.569	0.224854	0.2253	-0.0182726	3	3.33356	12	-4.11681e-06
2	0	0	1	0	598.069	0.179853	0.179969	-0.0163215	3	3.33348	12	-2.93736e-06
2	1	0	0	0	602.569	0.134852	0.132925	-0.0145091	3	3.33341	12	-1.92862e-06
2	1	0	0	0	607.069	0.0898514	0.0924159	-0.0127091	3	3.33335	12	-1.17452e-06
2	0	0	1	0	611.569	0.0448505	0.038788	-0.0110465	3	3.33329	12	-4.28472e-07
2	1	0	1	0	616.034	0.000199694	0.00025245	-0.0103435	3	3.33324	12	-2.61121e-09
2	1	0	0	1	620.41	-0.0435511	-0.0457317	-0.00994102	3	3.3332	12	4.54619e-07
2	0	0	1	1	624.91	-0.088552	-0.0908598	-0.00920365	3	3.33315	12	8.36242e-07
2	1	0	1	1	629.41	-0.133553	-0.13431	-0.00899244	3	3.33311	12	1.20777e-06
2	0	0	1	1	632.107	-0.160603	-0.163988	-0.016232	3	3.33308	12	2.66186e-06