File: Data_Lola/CoNiFeNx_400ºC_24h_13102022/Electrodes_20012023/Set 1/2023_01_20_CoNiFeNx_400ºC_24h_electrode3_set1_20012023_1_01_CV_C01.mpt
EC-Lab ASCII FILE
Nb header lines : 57

Cyclic Voltammetry

Run on channel : 1 (SN 21648)
User :
CE vs. WE compliance from -10 V to 10 V
Electrode connection : standard
Potential control : Ewe
Ewe ctrl range : min = -2.50 V, max = 2.50 V
Safety Limits :
	Do not start on E overload
Acquisition started on : 01/20/2023 15:35:00.241
Loaded Setting File :  NONE
Saved on :
	File : 2023_01_20_CoNiFeNx_400ºC_24h_electrode1_set1_20012023_2_01_CV_C01.mpr
	Directory : C:\Users\grupogalan\Documents\EC-Lab\Data\Lole Jurado\
	Host : 169.254.104.159
Device : VSP (SN 1176)
Address : USB
EC-Lab for windows v11.46 (software)
Internet server v11.40 (firmware)
Command interpretor v11.40 (firmware)
Electrode material :
Initial state :
Electrolyte :
Comments :
Electrode surface area : 0.000 cm²
Characteristic mass : 0.001 g
Equivalent Weight : 0.000 g/eq.
Density : 0.000 g/cm3
Volume (V) : 0.001 cm³
Cycle Definition : Charge/Discharge alternance
Ei (V)              0.000
vs.                 Eoc
dE/dt               10.000
dE/dt unit          mV/s
E1 (V)              1.000
vs.                 Ref
Step percent        50
N                   10
E range min (V)     -2.500
E range max (V)     2.500
I Range             Auto
I Range min         Unset
I Range max         Unset
I Range init        Unset
Bandwidth           5
E2 (V)              0.000
vs.                 Ref
nc cycles           2
Reverse Scan        1
Ef (V)              0.000
vs.                 Eoc

mode	ox/red	error	control changes	counter inc.	time/s	control/V	Ewe/V	<I>/mA	cycle number	(Q-Qo)/C	I Range	P/W
2	0	0	1	0	0.000000000000000E+000	-0.177304	-0.168112	-0.0477846	1	0.0000000E+000	13	8.03318e-06
2	1	0	0	0	4.5852	-0.131453	-0.135359	0.0020534	1	7.88452e-06	12	-2.77946e-07
2	0	0	0	0	9.1852	-0.0854519	-0.0796955	0.00337616	1	2.39261e-05	12	-2.69065e-07
2	1	0	1	0	13.7854	-0.0394511	-0.0404439	0.00503851	1	4.69295e-05	12	-2.03777e-07
2	1	0	1	0	18.3854	0.00654981	0.007527	0.00666865	1	7.54525e-05	12	5.0195e-08
2	1	0	0	0	22.9856	0.0525507	0.0528142	0.00745228	1	0.000108708	12	3.93586e-07
2	1	0	0	0	27.5856	0.0985515	0.0993117	0.00831668	1	0.000146363	12	8.25944e-07
2	1	0	0	0	32.1856	0.144552	0.145391	0.00897377	1	0.000189515	12	1.30471e-06
2	0	0	1	0	36.7858	0.190553	0.188071	0.0123616	1	0.000242268	12	2.32485e-06
2	1	0	1	0	41.3858	0.236554	0.23767	0.0161667	1	0.000310416	12	3.84235e-06
2	1	0	0	0	45.986	0.282555	0.280583	0.0201386	1	0.000396637	12	5.65054e-06
2	1	0	0	0	50.586	0.328556	0.33418	0.0292164	1	0.000512432	12	9.76351e-06
2	1	0	1	0	55.1862	0.374557	0.373442	0.0431642	1	0.000679966	12	1.61193e-05
2	1	0	1	0	59.7862	0.420557	0.42137	0.0634654	1	0.000925616	12	2.67424e-05
2	1	0	0	0	64.3864	0.466558	0.466415	0.0969252	1	0.00129317	12	4.52073e-05
2	1	0	0	0	68.9864	0.512559	0.512326	0.135842	1	0.00183289	12	6.95956e-05
2	1	0	0	0	73.5864	0.55856	0.557144	0.180046	1	0.00255994	12	0.000100311
2	1	0	1	0	78.1866	0.604561	0.604576	0.278312	1	0.0035672	12	0.00016826
2	1	0	1	0	82.7866	0.650562	0.650303	0.726263	1	0.0056559	12	0.000472291
2	1	0	0	0	87.4168	0.696863	0.697903	2.01317	1	0.0116057	11	0.001405
2	1	0	0	0	92.0168	0.742863	0.740837	4.5087	1	0.026087	11	0.00334022
2	1	0	1	0	96.617	0.788864	0.788796	8.57191	1	0.0555399	11	0.00676149
2	1	0	1	0	101.247	0.835165	0.838468	14.4989	1	0.108314	10	0.0121568
2	1	0	1	0	105.847	0.881166	0.879895	22.4324	1	0.192542	10	0.0197382
2	1	0	0	0	110.447	0.927167	0.929183	32.3303	1	0.318033	10	0.0300408
2	1	0	0	0	115.047	0.973168	0.971921	42.5806	1	0.490697	10	0.0413849
2	1	0	0	0	119.488	0.982468	0.983841	41.6742	1	0.690814	10	0.0410008
2	1	0	0	0	124.088	0.936467	0.938144	29.1095	1	0.852172	10	0.0273089
2	1	0	0	0	128.688	0.890466	0.889999	19.3889	1	0.962768	10	0.0172561
2	1	0	1	0	133.288	0.844465	0.847228	12.045	1	1.03409	10	0.0102048
2	1	0	1	0	137.888	0.798464	0.799669	6.98506	1	1.07698	10	0.00558574
2	1	0	0	0	142.518	0.752164	0.751784	3.73518	1	1.10115	11	0.00280805
2	1	0	0	0	147.118	0.706163	0.703245	1.81898	1	1.11351	11	0.00127919
2	1	0	1	0	151.719	0.660162	0.660668	0.744869	1	1.11915	11	0.000492111
2	1	0	1	0	156.349	0.613861	0.612306	0.226533	1	1.12122	12	0.000138707
2	1	0	1	0	160.949	0.56786	0.568474	0.0430486	1	1.12175	12	2.4472e-05
2	0	0	0	0	165.549	0.521859	0.523516	-0.00230912	1	1.12182	12	-1.20886e-06
2	0	0	0	0	170.149	0.475858	0.473249	-0.0140563	1	1.12177	12	-6.65211e-06
2	0	0	1	0	174.749	0.429858	0.42911	-0.0180268	1	1.12169	12	-7.73547e-06
2	1	0	1	0	179.349	0.383857	0.384078	-0.0200675	1	1.1216	12	-7.70746e-06
2	0	0	0	0	183.949	0.337856	0.336912	-0.0207779	1	1.1215	12	-7.00033e-06
2	1	0	0	0	188.549	0.291855	0.29031	-0.0199113	1	1.1214	12	-5.78045e-06
2	1	0	1	0	193.149	0.245854	0.246123	-0.0176263	1	1.12131	12	-4.33824e-06
2	1	0	1	0	197.749	0.199853	0.199208	-0.0157688	1	1.12123	12	-3.14126e-06
2	1	0	1	0	202.349	0.153853	0.152787	-0.0133282	1	1.12117	12	-2.03637e-06
2	0	0	0	0	206.95	0.107852	0.105811	-0.0119559	1	1.12111	12	-1.26507e-06
2	0	0	0	0	211.55	0.0618508	0.0632795	-0.0100768	1	1.12106	12	-6.37657e-07
2	1	0	1	0	216.15	0.01585	0.0157382	-0.00930986	1	1.12101	12	-1.4652e-07
2	1	0	1	1	220.59	0.0285502	0.028605	-0.00556135	2	1.12098	12	-1.59082e-07
2	0	0	0	1	225.19	0.0745511	0.0730351	-0.00316359	2	1.12096	12	-2.31053e-07
2	1	0	0	1	229.79	0.120552	0.117415	-0.00170363	2	1.12095	12	-2.00033e-07
2	1	0	1	1	234.391	0.166553	0.166433	0.00048903	2	1.12094	12	8.13907e-08
2	0	0	1	1	238.991	0.212554	0.210361	0.00177471	2	1.12095	12	3.7333e-07
2	0	0	0	1	243.591	0.258554	0.258728	0.00437029	2	1.12097	12	1.13072e-06
2	1	0	0	1	248.191	0.304555	0.300934	0.00866764	2	1.121	12	2.60839e-06
2	0	0	0	1	252.791	0.350556	0.351784	0.0141296	2	1.12105	12	4.97055e-06
2	1	0	1	1	257.391	0.396557	0.39768	0.0228777	2	1.12114	12	9.09798e-06
2	1	0	1	1	261.991	0.442558	0.440727	0.0338518	2	1.12127	12	1.49194e-05
2	1	0	0	1	266.591	0.488559	0.490492	0.0453064	2	1.12146	12	2.22224e-05
2	1	0	0	1	271.191	0.53456	0.533059	0.0581028	2	1.1217	12	3.09722e-05
2	1	0	1	1	275.791	0.58056	0.581609	0.0829669	2	1.12201	12	4.82543e-05
2	1	0	1	1	280.391	0.626561	0.626664	0.214774	2	1.12262	12	0.000134591
2	1	0	1	1	284.991	0.672562	0.67257	0.721839	2	1.12457	12	0.000485487
2	1	0	0	1	289.622	0.718863	0.719618	2.01429	2	1.13053	11	0.00144952
2	1	0	0	1	294.222	0.764864	0.761304	4.51937	2	1.14501	11	0.00344062
2	1	0	1	1	298.822	0.810865	0.812081	8.62331	2	1.17461	11	0.00700283
2	1	0	1	1	303.452	0.857166	0.855774	14.4441	2	1.22747	10	0.0123609
2	1	0	0	1	308.052	0.903166	0.900559	21.6235	2	1.30998	10	0.0194732
2	1	0	0	1	312.652	0.949167	0.949442	29.8442	2	1.42813	10	0.0283353
2	1	0	1	1	317.252	0.995168	0.994445	38.7571	2	1.58561	10	0.0385418
2	1	0	0	1	321.693	0.960468	0.958833	30.1444	2	1.7419	10	0.0289034
2	1	0	0	1	326.293	0.914467	0.915978	20.8771	2	1.85834	10	0.019123
2	1	0	1	1	330.893	0.868466	0.869098	13.4707	2	1.93649	10	0.0117074
2	1	0	1	1	335.493	0.822465	0.820629	8.03535	2	1.98518	10	0.00659404
2	1	0	0	1	340.123	0.776164	0.776698	4.4071	2	2.01338	11	0.00342299
2	1	0	0	1	344.723	0.730163	0.730815	2.1942	2	2.02812	11	0.00160355
2	1	0	0	1	349.323	0.684162	0.685607	0.952046	2	2.03506	11	0.000652729
2	1	0	1	1	353.953	0.637861	0.633897	0.329731	2	2.03783	12	0.000209016
2	1	0	1	1	358.553	0.591861	0.590346	0.0841518	2	2.03868	12	4.96787e-05
2	1	0	0	1	363.154	0.54586	0.542661	0.0109605	2	2.03886	12	5.9478e-06
2	1	0	0	1	367.754	0.499859	0.502883	-0.0079154	2	2.03885	12	-3.98052e-06
2	0	0	1	1	372.354	0.453858	0.454676	-0.0134195	2	2.0388	12	-6.10151e-06
2	0	0	1	1	376.954	0.407857	0.405943	-0.0158641	2	2.03873	12	-6.4399e-06
2	0	0	1	1	381.554	0.361856	0.362667	-0.0177545	2	2.03865	12	-6.43897e-06
2	0	0	0	1	386.154	0.315856	0.316623	-0.0182392	2	2.03856	12	-5.77496e-06
2	0	0	0	1	390.754	0.269855	0.26529	-0.0171524	2	2.03848	12	-4.55035e-06
2	0	0	1	1	395.354	0.223854	0.224559	-0.0153894	2	2.0384	12	-3.45582e-06
2	1	0	1	1	399.954	0.177853	0.178898	-0.0141407	2	2.03833	12	-2.52975e-06
2	1	0	0	1	404.554	0.131852	0.131765	-0.0119103	2	2.03827	12	-1.56937e-06
2	0	0	0	1	409.154	0.0858513	0.0843988	-0.0109106	2	2.03822	12	-9.20841e-07
2	0	0	1	1	413.754	0.0398495	0.0377427	-0.00968264	2	2.03817	12	-3.65449e-07
2	1	0	1	0	418.195	0.00454977	0.00596135	-0.0080865	3	2.03813	12	-4.82064e-08
2	0	0	0	0	422.795	0.0505506	0.0475392	-0.0046667	3	2.0381	12	-2.21851e-07
2	0	0	0	0	427.395	0.0965515	0.0960903	-0.00293363	3	2.03809	12	-2.81894e-07
2	1	0	0	0	431.995	0.142552	0.145132	-0.000942533	3	2.03808	12	-1.36792e-07
2	0	0	1	0	436.595	0.188553	0.188329	0.000673986	3	2.03808	12	1.26931e-07
2	0	0	1	0	441.195	0.234554	0.238296	0.00221685	3	2.03809	12	5.28267e-07
2	1	0	0	0	445.796	0.280555	0.277965	0.00584527	3	2.03811	12	1.62478e-06
2	1	0	0	0	450.396	0.326556	0.333783	0.00949134	3	2.03814	12	3.16805e-06
2	1	0	1	0	454.996	0.372557	0.367978	0.014876	3	2.0382	12	5.47406e-06
2	0	0	1	0	459.596	0.418557	0.421725	0.0234986	3	2.03829	12	9.90996e-06
2	1	0	0	0	464.196	0.464558	0.463649	0.0329474	3	2.03842	12	1.5276e-05
2	1	0	0	0	468.796	0.510559	0.512007	0.043342	3	2.0386	12	2.21914e-05
2	1	0	0	0	473.396	0.55656	0.554024	0.0555461	3	2.03882	12	3.07739e-05
2	1	0	1	0	477.996	0.602561	0.604108	0.0982866	3	2.03916	12	5.93757e-05
2	1	0	1	0	482.596	0.648562	0.647418	0.306262	3	2.03999	12	0.000198279
2	1	0	0	0	487.196	0.694563	0.692845	0.961658	3	2.04266	12	0.00066628
2	1	0	0	0	491.826	0.740863	0.742013	2.46676	3	2.0502	11	0.00183037
2	1	0	1	0	496.427	0.786864	0.781565	5.23829	3	2.06738	11	0.00409406
2	1	0	1	0	501.027	0.832865	0.83338	9.54772	3	2.10082	11	0.00795688
2	1	0	1	0	505.657	0.879166	0.875088	15.3415	3	2.15798	10	0.0134251
2	1	0	0	0	510.257	0.925167	0.922914	22.1696	3	2.24389	10	0.0204606
2	1	0	0	0	514.857	0.971168	0.97093	29.7601	3	2.36309	10	0.0288949
2	1	0	0	0	519.298	0.984468	0.985563	31.2473	3	2.50768	10	0.0307961
2	1	0	0	0	523.898	0.938467	0.938197	22.1035	3	2.62969	10	0.0207374
2	1	0	0	0	528.498	0.892466	0.892367	14.7344	3	2.71369	10	0.0131485
2	1	0	1	0	533.098	0.846465	0.847293	9.21138	3	2.76813	10	0.00780474
2	1	0	1	0	537.698	0.800464	0.799396	5.29566	3	2.80087	10	0.00423333
2	1	0	0	0	542.328	0.754164	0.757317	2.75367	3	2.81901	11	0.0020854
2	1	0	0	0	546.928	0.708163	0.708442	1.27046	3	2.82791	11	0.00090005
2	1	0	1	0	551.528	0.662162	0.664882	0.491068	3	2.83173	11	0.000326503
2	1	0	1	0	556.158	0.615861	0.612029	0.146491	3	2.83307	12	8.96568e-05
2	1	0	1	0	560.758	0.56986	0.569925	0.0319452	3	2.83343	12	1.82064e-05
2	1	0	0	0	565.358	0.523859	0.524675	0.00120236	3	2.83348	12	6.30846e-07
2	0	0	0	0	569.958	0.477859	0.477622	-0.00824078	3	2.83346	12	-3.93598e-06
2	0	0	1	0	574.559	0.431858	0.433333	-0.0112906	3	2.83341	12	-4.89261e-06
2	0	0	1	0	579.159	0.385857	0.387116	-0.0144668	3	2.83335	12	-5.60034e-06
2	0	0	0	0	583.759	0.339856	0.339667	-0.0152379	3	2.83328	12	-5.1758e-06
2	0	0	0	0	588.359	0.293855	0.294452	-0.0158195	3	2.8332	12	-4.65809e-06
2	0	0	1	0	592.959	0.247854	0.246488	-0.0140558	3	2.83313	12	-3.46459e-06
2	0	0	1	0	597.559	0.201853	0.203106	-0.0138358	3	2.83307	12	-2.81013e-06
2	0	0	1	0	602.159	0.155853	0.154676	-0.0118502	3	2.83301	12	-1.83295e-06
2	1	0	0	0	606.759	0.109852	0.108495	-0.0103869	3	2.83296	12	-1.12692e-06
2	0	0	0	0	611.359	0.0638509	0.0665285	-0.00937552	3	2.83291	12	-6.2374e-07
2	0	0	1	0	615.959	0.01785	0.0155738	-0.00914271	3	2.83287	12	-1.42386e-07
2	0	0	0	1	620.4	-0.0265508	-0.0274445	-0.00860249	3	2.83283	12	2.36091e-07
2	0	0	1	1	625	-0.0725517	-0.0743897	-0.00826609	3	2.83279	12	6.14912e-07
2	0	0	1	1	629.6	-0.118553	-0.119927	-0.00795959	3	2.83275	12	9.54572e-07
2	0	0	1	1	634.2	-0.164553	-0.164111	-0.00822019	3	2.83271	12	1.34903e-06
2	1	0	1	1	635.494	-0.177504	-0.179072	-0.0148326	3	2.8327	12	2.6561e-06