File: Data_Lola/CoNiFeNx_400ºC_24h_13102022/Electrodes_20012023/Set 1/2023_01_20_CoNiFeNx_400ºC_24h_electrode2_set1_20012023_C05.mpt
EC-Lab ASCII FILE
Nb header lines : 64

Potentio Electrochemical Impedance Spectroscopy

Run on channel : 5 (SN 30436)
User :
CE vs. WE compliance from -10 V to 10 V
Electrode connection : standard
Potential control : Ewe
Ewe ctrl range : min = -2.50 V, max = 2.50 V
Safety Limits :
	Do not start on E overload
Acquisition started on : 01/20/2023 15:51:02.213
Loaded Setting File :  NONE
Saved on :
	File : 2023_01_20_CoNiFeNx_400ºC_24h_electrode2_set1_20012023_C05.mpr
	Directory : C:\Users\grupogalan\Documents\EC-Lab\Data\Lole Jurado\
	Host : 169.254.104.159
Device : VSP (SN 1176)
Address : USB
EC-Lab for windows v11.46 (software)
Internet server v11.40 (firmware)
Command interpretor v11.40 (firmware)
Electrode material :
Initial state :
Electrolyte :
Comments :
Electrode surface area : 0.001 cm²
Characteristic mass : 0.001 g
Equivalent Weight : 0.000 g/eq.
Density : 0.000 g/cm3
Volume (V) : 0.001 cm³
Record Ece
Cycle Definition : Charge/Discharge alternance
Mode                Single sine
E (V)               0.0000
vs.                 Eoc
tE (h:m:s)          0:00:0.0000
record              0
dI                  0.000
unit dI             mA
dt (s)              0.000
fi                  200.000
unit fi             kHz
ff                  100.000
unit ff             mHz
Nd                  6
Points              per decade
spacing             Logarithmic
Va (mV)             10.0
pw                  0.10
Na                  2
corr                0
E range min (V)     -2.500
E range max (V)     2.500
I Range             Auto
Bandwidth           5
nc cycles           0
goto Ns'            0
nr cycles           0
inc. cycle          0

freq/Hz	Re(Z)/Ohm	-Im(Z)/Ohm	|Z|/Ohm	Phase(Z)/deg	time/s	<Ewe>/V	<I>/mA	Cs/µF	Cp/µF	cycle number	I Range	|Ewe|/V	|I|/A	Ns	(Q-Qo)/mA.h	<Ece>/V	|Ece|/V	Phase(Zce)/deg	|Zce|/Ohm	Re(Zce)/Ohm	-Im(Zce)/Ohm	Phase(Zwe-ce)/deg	|Zwe-ce|/Ohm	Re(Zwe-ce)/Ohm	-Im(Zwe-ce)/Ohm	Re(Y)/Ohm-1	Im(Y)/Ohm-1	|Y|/Ohm-1	Phase(Y)/deg	dq/mA.h
199998	1.32479	-1.54771	2.03727	49.4374	2.19854	-0.158596	-0.122623	-0.514169	-0.296746	1	9	0.00700045	0.00343619	0	-2.1257e-05	-0.105129	0.00333048	-21.8939	0.969236	0.899331	0.361417	28.0743	2.52072	2.22412	-1.18629	0.319191	-0.372899	0.490853	-49.4374	-2.1257e-05
91291.2	0.743795	-0.306469	0.804459	22.3933	2.95256	-0.158424	-0.153371	-5.6886	-0.8256	1	9	0.00968385	0.0120377	0	-5.07495e-05	-0.111107	0.0177392	5.02509	1.47363	1.46797	-0.129078	11.1403	2.25424	2.21176	-0.435547	1.14933	-0.473564	1.24307	-22.3933	-1.79964e-05
41669.8	0.73089	0.0473359	0.732422	-3.70557	3.82853	-0.158101	-0.0768933	80.6879	0.337029	1	9	0.00969112	0.0132316	0	-2.20222e-05	-0.0882237	0.0201187	2.78277	1.5205	1.51871	-0.0738193	0.674484	2.24975	2.2496	-0.0264834	1.36248	0.0882406	1.36533	3.70557	5.34553e-05
19020.9	0.802036	0.22716	0.833585	-15.8137	4.70456	-0.158634	-0.0224424	36.8346	2.73541	1	9	0.0103807	0.0124531	0	-6.88964e-05	-0.118633	0.0190273	-2.08625	1.52792	1.5269	0.0556222	-6.92304	2.34604	2.32894	0.282783	1.15424	0.326914	1.19964	15.8137	-0.00010022
8684.68	0.806687	0.567714	0.98643	-35.1364	5.45855	-0.158532	-0.155719	32.2802	10.6921	1	9	0.0103335	0.0104756	0	-8.49223e-05	-0.108681	0.0157921	-6.51721	1.50751	1.49776	0.171104	-17.7761	2.41999	2.30445	0.738819	0.829035	0.583442	1.01376	35.1364	-1.57422e-05
3960.08	0.936424	1.20188	1.52362	-52.0767	6.01483	-0.159419	-0.196194	33.4391	20.8078	1	9	0.00939358	0.00616531	0	-0.000103519	-0.109828	0.0102814	0.0743364	1.66761	1.66761	-0.00216359	-24.7362	2.86711	2.60404	1.19972	0.403386	0.517738	0.656332	52.0767	-1.34208e-05
1808.26	0.894535	2.50327	2.6583	-70.3358	7.50507	-0.159064	-0.187584	35.1601	31.1787	1	9	0.00964874	0.00362966	0	-0.000179268	-0.092235	0.0056213	-11.7997	1.54871	1.51598	0.316697	-49.4761	3.70983	2.41052	2.81997	0.126587	0.354242	0.37618	70.3358	-2.69981e-05
825.264	1.52532	4.68604	4.92804	-71.9698	8.85184	-0.158989	-0.0161063	41.1548	37.2121	1	10	0.00993814	0.00201665	0	-0.000195184	-0.100028	0.00357629	-9.81934	1.77338	1.7474	0.302437	-56.7329	5.96621	3.27272	4.98848	0.0628076	0.192956	0.20292	71.9698	-2.83052e-06
377.051	2.66557	10.898	11.2193	-76.2557	9.74177	-0.159378	-0.0323649	38.7323	36.5459	1	10	0.0106173	0.000946346	0	-0.000200425	-0.0998947	0.00215673	-25.186	2.27901	2.06235	0.969852	-68.2786	12.7749	4.72792	11.8678	0.0211769	0.0865803	0.0891325	76.2557	-3.69249e-06
172.037	2.09988	22.5691	22.6666	-84.6844	10.6285	-0.1581	-0.027947	40.9906	40.6388	1	10	0.0101253	0.000446706	0	-0.000206626	-0.108185	0.00148481	-22.2185	3.32391	3.0771	1.2569	-77.7412	24.382	5.17698	23.826	0.00408716	0.0439281	0.0441178	84.6844	-2.46363e-06
78.5176	7.61818	46.5695	47.1885	-80.7094	12.1856	-0.158356	-0.00171987	43.5262	42.3918	1	11	0.0104206	0.000220829	0	-0.00020837	-0.103715	0.000569625	-37.9244	2.57948	2.03475	1.5854	-78.665	49.1129	9.65293	48.1549	0.0034212	0.0209136	0.0211916	80.7094	-1.22426e-07
35.8372	11.743	99.2775	99.9696	-83.2542	13.0822	-0.159288	-0.00332002	44.7338	44.1165	1	11	0.0104929	0.000104961	0	-0.000209275	-0.0835056	0.0014129	-57.2949	13.4611	7.27326	11.327	-80.2445	112.227	19.0162	110.605	0.00117501	0.00993379	0.010003	83.2542	-5.57371e-07
16.367	42.1748	200.323	204.715	-78.1109	14.1781	-0.158833	-0.000214293	48.5423	46.482	1	12	0.0105892	5.17265e-05	0	-0.000209465	-0.103505	0.00092719	26.6122	17.9248	16.0259	-8.02944	-73.1608	200.909	58.2007	192.294	0.00100636	0.00478005	0.00488484	78.1109	2.70186e-07
7.46893	92.0171	373.592	384.758	-76.1633	14.8917	-0.158404	-0.00125117	57.0379	53.7756	1	12	0.0100306	2.60699e-05	0	-0.000209599	-0.107765	0.00125381	-34.1216	48.0941	39.8146	26.9784	-71.7831	421.707	131.832	400.571	0.000621576	0.00252362	0.00259904	76.1633	2.87405e-07
3.4086	185.775	742.126	765.025	-75.946	16.3114	-0.159373	-0.0005926	62.9169	59.2067	1	13	0.0095641	1.25017e-05	0	-0.000210014	-0.0716435	0.000676315	-93.3039	54.0979	-3.11775	54.008	-77.0782	816.819	182.657	796.134	0.000317422	0.00126802	0.00130715	75.946	-3.64513e-07
1.55627	529.608	1566.58	1653.68	-71.3213	18.623	-0.158806	-0.000476177	65.2803	58.5847	1	13	0.0102322	6.18753e-06	0	-0.000210393	-0.100984	0.000939091	-58.2121	151.772	79.9497	129.006	-70.2266	1801.82	609.558	1695.58	0.000193666	0.000572862	0.000604713	71.3213	-9.82873e-08
0.710357	906.216	3241.21	3365.51	-74.3794	38.4438	-0.158819	-0.000377436	69.1253	64.1134	1	13	0.0102754	3.05316e-06	0	-0.000212705	-0.0795897	0.000648992	-35.1061	212.564	173.896	122.244	-72.1965	3532.62	1080.11	3363.45	8.00074e-05	0.000286158	0.000297132	74.3794	-2.2364e-06
0.324439	2534.34	5524.04	6077.66	-65.3552	102.535	-0.158626	-0.00083522	88.8034	73.362	1	13	0.0101719	1.67366e-06	0	-0.000224992	-0.105625	0.000564757	-53.5007	337.439	200.713	271.255	-64.7354	6408.27	2735.05	5795.3	6.86107e-05	0.000149549	0.000164537	65.3552	-8.04057e-06
0.147897	7098.69	10296.4	12506.3	-55.4162	241.467	-0.158867	-0.000737348	104.515	70.8419	1	13	0.0100342	8.0233e-07	0	-0.000255002	-0.0997228	0.00052167	-40.5062	650.194	494.366	422.32	-54.6865	13135.6	7593.06	10718.7	4.53861e-05	6.58307e-05	7.99599e-05	55.4162	-1.74819e-05
0.0999041	9846.11	10934.7	14714.4	-47.9986	363.741	-0.158811	-0.000458795	145.69	80.4561	1	13	0.0100207	6.81014e-07	0	-0.0002768	-0.0944699	0.000393358	-62.1049	577.607	270.235	510.492	-48.5267	15275.2	10116.3	11445.2	4.54758e-05	5.05036e-05	6.79607e-05	47.9986	-2.17977e-05