File: Data_1/2022_01_24 Co50Ni25Fe25Nx elec1 Tafel_C02.mpt
EC-Lab ASCII FILE
Nb header lines : 53

Chronopotentiometry

Run on channel : 2 (SN 12477)
User :
CE vs. WE compliance from -10 V to 10 V
Electrode connection : standard
Potential control : Ewe
Ewe ctrl range : min = -2.50 V, max = 2.50 V
Safety Limits :
	Do not start on E overload
Acquisition started on : 01/24/2023 17:35:55.780
Loaded Setting File :  C:\Users\grupogalan\Documents\EC-Lab\Data\Scott\2022_01_20 Ni60Co30Fe10Ox set1.1.mps
Saved on :
	File : 2022_01_24 Co50Ni25Fe25Nx elec1 Tafel_C02.mpr
	Directory : C:\Users\grupogalan\Documents\EC-Lab\Data\Scott\
	Host : 169.254.104.159
Device : VSP (SN 1176)
Address : USB
EC-Lab for windows v11.46 (software)
Internet server v11.40 (firmware)
Command interpretor v11.40 (firmware)
Electrode material :
Initial state :
Electrolyte :
Comments :
Electrode surface area : 0.000 cm²
Characteristic mass : 0.001 g
Equivalent Weight : 0.000 g/eq.
Density : 0.000 g/cm3
Volume (V) : 0.001 cm³
Cycle Definition : Charge/Discharge alternance
Ns                  0                   1                   2                   3                   4                   5                   6                   7                   8                   9                   10                  11                  12
Is                  10.000              18.000              32.000              56.000              100.000             178.000             316.000             562.000             1.000               1.778               3.162               5.623               10.000
unit Is             µA                  µA                  µA                  µA                  µA                  µA                  µA                  µA                  mA                  mA                  mA                  mA                  mA
vs.                 <None>              <None>              <None>              <None>              <None>              <None>              <None>              <None>              <None>              <None>              <None>              <None>              <None>
ts (h:m:s)          0:03:0.0000         0:03:0.0000         0:03:0.0000         0:03:0.0000         0:03:0.0000         0:03:0.0000         0:03:0.0000         0:03:0.0000         0:03:0.0000         0:03:0.0000         0:03:0.0000         0:03:0.0000         0:03:0.0000
EM (V)              pass                pass                pass                pass                pass                pass                pass                pass                pass                pass                pass                pass                pass
dQM                 500.000             900.000             1.600               2.800               5.000               8.900               15.800              28.100              50.000              88.900              158.100             281.150             500.000
unit dQM            nA.h                nA.h                µA.h                µA.h                µA.h                µA.h                µA.h                µA.h                µA.h                µA.h                µA.h                µA.h                µA.h
record              <Ewe>               <Ewe>               <Ewe>               <Ewe>               <Ewe>               <Ewe>               <Ewe>               <Ewe>               <Ewe>               <Ewe>               <Ewe>               <Ewe>               <Ewe>
dEs (mV)            0.00                0.00                0.00                0.00                0.00                0.00                0.00                0.00                0.00                0.00                0.00                0.00                0.00
dts (s)             1.0000              1.0000              1.0000              1.0000              1.0000              1.0000              1.0000              1.0000              1.0000              1.0000              1.0000              1.0000              1.0000
E range min (V)     -2.500              -2.500              -2.500              -2.500              -2.500              -2.500              -2.500              -2.500              -2.500              -2.500              -2.500              -2.500              -2.500
E range max (V)     2.500               2.500               2.500               2.500               2.500               2.500               2.500               2.500               2.500               2.500               2.500               2.500               2.500
I Range             10 mA               10 mA               10 mA               10 mA               10 mA               10 mA               10 mA               10 mA               10 mA               10 mA               10 mA               10 mA               10 mA
Bandwidth           5                   5                   5                   5                   5                   5                   5                   5                   5                   5                   5                   5                   5
goto Ns'            0                   0                   0                   0                   0                   0                   0                   0                   0                   0                   0                   0                   0
nc cycles           0                   0                   0                   0                   0                   0                   0                   0                   0                   0                   0                   0                   0

mode	ox/red	error	control changes	Ns changes	counter inc.	Ns	time/s	control/mA	<Ewe>/V	I/mA	dQ/C	(Q-Qo)/C	half cycle	Q charge/discharge/mA.h	I Range	Energy charge/W.h	Energy discharge/W.h	Capacitance charge/µF	Capacitance discharge/µF	Q discharge/mA.h	Q charge/mA.h	Capacity/mA.h	Efficiency/%	cycle number	P/W
1	1	0	0	0	0	0	1	0.01	-0.206066	0.0112622	1.10491e-05	1.10491e-05	0	3.0692e-06	11	6.32458e-10	0.000000000000000E+000	0.000000000000000E+000	0.000000000000000E+000	0.000000000000000E+000	3.0692e-06	3.0692e-06	0.0000000E+000	0.000000000000000E+000	-2.32075e-06
1	1	0	0	0	0	0	58	0.01	0.112898	0.0116439	0.000671423	0.000671423	0	0.000186506	11	1.24237e-08	0.000000000000000E+000	2105.01	0.000000000000000E+000	0.000000000000000E+000	0.000186506	0.000186506	0.0000000E+000	0.000000000000000E+000	1.31458e-06
1	1	0	0	0	0	0	115	0.01	0.213087	0.0124074	0.00133257	0.00133257	0	0.000370159	11	4.27063e-08	0.000000000000000E+000	3179.21	0.000000000000000E+000	0.000000000000000E+000	0.000370159	0.000370159	0.0000000E+000	0.000000000000000E+000	2.64386e-06
1	1	0	0	0	0	0	172	0.01	0.29913	0.0115167	0.00199378	0.00199378	0	0.000553829	11	9.02345e-08	0.000000000000000E+000	3946.56	0.000000000000000E+000	0.000000000000000E+000	0.000553829	0.000553829	0.0000000E+000	0.000000000000000E+000	3.44498e-06
1	1	0	1	0	0	1	228.05	0.018	0.406591	0.0181337	0.000910636	0.00299769	0	0.000832693	11	1.96365e-07	0.000000000000000E+000	4892.94	0.000000000000000E+000	0.000000000000000E+000	0.000832693	0.000832693	0.0000000E+000	0.000000000000000E+000	7.373e-06
1	1	0	1	0	0	1	285.05	0.018	0.417759	0.0183246	0.00199188	0.00407894	0	0.00113304	11	3.20637e-07	0.000000000000000E+000	6538.6	0.000000000000000E+000	0.000000000000000E+000	0.00113304	0.00113304	0.0000000E+000	0.000000000000000E+000	7.65525e-06
1	1	0	1	0	0	1	342.05	0.018	0.419543	0.0187063	0.00307381	0.00516087	0	0.00143357	11	4.46632e-07	0.000000000000000E+000	8249.34	0.000000000000000E+000	0.000000000000000E+000	0.00143357	0.00143357	0.0000000E+000	0.000000000000000E+000	7.84811e-06
1	1	0	0	0	0	2	398.05	0.032	0.471501	0.0329584	0.00125929	0.00676217	0	0.00187838	11	6.50297e-07	0.000000000000000E+000	9980.07	0.000000000000000E+000	0.000000000000000E+000	0.00187838	0.00187838	0.0000000E+000	0.000000000000000E+000	1.55399e-05
1	1	0	0	0	0	2	455.05	0.032	0.476767	0.0330856	0.00314805	0.00865093	0	0.00240304	11	8.99225e-07	0.000000000000000E+000	12669.2	0.000000000000000E+000	0.000000000000000E+000	0.00240304	0.00240304	0.0000000E+000	0.000000000000000E+000	1.57741e-05
1	1	0	0	0	0	2	512.05	0.032	0.48023	0.0338491	0.00503764	0.0105405	0	0.00292792	11	1.15043e-06	0.000000000000000E+000	15358.6	0.000000000000000E+000	0.000000000000000E+000	0.00292792	0.00292792	0.0000000E+000	0.000000000000000E+000	1.62554e-05
1	1	0	1	0	0	3	568.051	0.056	0.534214	0.0573904	0.00161198	0.0130804	0	0.00363344	11	1.51166e-06	0.000000000000000E+000	17669.5	0.000000000000000E+000	0.000000000000000E+000	0.00363344	0.00363344	0.0000000E+000	0.000000000000000E+000	3.06588e-05
1	1	0	1	0	0	3	625.051	0.056	0.540614	0.0575177	0.00489401	0.0163624	0	0.00454512	11	2.00134e-06	0.000000000000000E+000	21913.6	0.000000000000000E+000	0.000000000000000E+000	0.00454512	0.00454512	0.0000000E+000	0.000000000000000E+000	3.10949e-05
1	1	0	1	0	0	3	682.051	0.056	0.545394	0.0573904	0.00817556	0.019644	0	0.00545666	11	2.49609e-06	0.000000000000000E+000	26141.1	0.000000000000000E+000	0.000000000000000E+000	0.00545666	0.00545666	0.0000000E+000	0.000000000000000E+000	3.13004e-05
1	1	0	0	0	0	4	738.051	0.1	0.595959	0.100783	0.00182524	0.0236571	0	0.00657143	11	3.12896e-06	0.000000000000000E+000	29496.7	0.000000000000000E+000	0.000000000000000E+000	0.00657143	0.00657143	0.0000000E+000	0.000000000000000E+000	6.00624e-05
1	1	0	0	0	0	4	795.051	0.1	0.597914	0.101674	0.00760559	0.0294375	0	0.00817708	11	4.08783e-06	0.000000000000000E+000	36614.7	0.000000000000000E+000	0.000000000000000E+000	0.00817708	0.00817708	0.0000000E+000	0.000000000000000E+000	6.0792e-05
1	1	0	0	0	0	4	852.051	0.1	0.598808	0.101292	0.013386	0.0352179	0	0.00978275	11	5.04845e-06	0.000000000000000E+000	43755.8	0.000000000000000E+000	0.000000000000000E+000	0.00978275	0.00978275	0.0000000E+000	0.000000000000000E+000	6.06543e-05
1	1	0	1	0	0	5	908.051	0.178	0.630886	0.179551	0.00143388	0.0415198	0	0.0115333	11	6.10983e-06	0.000000000000000E+000	49608.3	0.000000000000000E+000	0.000000000000000E+000	0.0115333	0.0115333	0.0000000E+000	0.000000000000000E+000	0.000113276
1	1	0	1	0	0	5	965.051	0.178	0.628932	0.179105	0.0116499	0.0517357	0	0.014371	11	7.89703e-06	0.000000000000000E+000	61959.1	0.000000000000000E+000	0.000000000000000E+000	0.014371	0.014371	0.0000000E+000	0.000000000000000E+000	0.000112645
1	1	0	1	0	0	5	1022.05	0.178	0.628444	0.179233	0.0218669	0.0619527	0	0.0172091	11	9.68084e-06	0.000000000000000E+000	74238.4	0.000000000000000E+000	0.000000000000000E+000	0.0172091	0.0172091	0.0000000E+000	0.000000000000000E+000	0.000112638
1	1	0	1	0	0	5	1079.05	0.178	0.627131	0.179805	0.0320839	0.0721697	0	0.0200471	11	1.14626e-05	0.000000000000000E+000	86617.8	0.000000000000000E+000	0.000000000000000E+000	0.0200471	0.0200471	0.0000000E+000	0.000000000000000E+000	0.000112761
1	1	0	0	0	0	6	1135.05	0.316	0.653544	0.317745	0.0174559	0.0898049	0	0.0249458	11	1.46674e-05	0.000000000000000E+000	104472	0.000000000000000E+000	0.000000000000000E+000	0.0249458	0.0249458	0.0000000E+000	0.000000000000000E+000	0.00020766
1	1	0	0	0	0	6	1192.05	0.316	0.652595	0.318444	0.0355465	0.107896	0	0.029971	11	1.79489e-05	0.000000000000000E+000	125656	0.000000000000000E+000	0.000000000000000E+000	0.029971	0.029971	0.0000000E+000	0.000000000000000E+000	0.000207815
1	1	0	0	0	0	6	1249.05	0.316	0.651715	0.316854	0.0536372	0.125986	0	0.0349962	11	2.12258e-05	0.000000000000000E+000	146875	0.000000000000000E+000	0.000000000000000E+000	0.0349962	0.0349962	0.0000000E+000	0.000000000000000E+000	0.000206498
1	1	0	1	0	0	7	1305.05	0.562	0.677836	0.563656	0.0253589	0.154836	0	0.0430101	11	2.66372e-05	0.000000000000000E+000	175174	0.000000000000000E+000	0.000000000000000E+000	0.0430101	0.0430101	0.0000000E+000	0.000000000000000E+000	0.000382066
1	1	0	1	0	0	7	1362.05	0.562	0.677049	0.562765	0.0574797	0.186957	0	0.0519325	11	3.26812e-05	0.000000000000000E+000	211702	0.000000000000000E+000	0.000000000000000E+000	0.0519325	0.0519325	0.0000000E+000	0.000000000000000E+000	0.000381019
1	1	0	1	0	0	7	1419.05	0.562	0.67657	0.563401	0.0896005	0.219078	0	0.060855	11	3.87199e-05	0.000000000000000E+000	248209	0.000000000000000E+000	0.000000000000000E+000	0.060855	0.060855	0.0000000E+000	0.000000000000000E+000	0.000381181
1	1	0	0	0	0	8	1475.05	1	0.703893	1.00171	0.0350462	0.265958	0	0.0738773	11	4.78015e-05	0.000000000000000E+000	292275	0.000000000000000E+000	0.000000000000000E+000	0.0738773	0.0738773	0.0000000E+000	0.000000000000000E+000	0.0007051
1	1	0	0	0	0	8	1532.05	1	0.703501	1.0014	0.0921208	0.323033	0	0.0897314	11	5.89566e-05	0.000000000000000E+000	355150	0.000000000000000E+000	0.000000000000000E+000	0.0897314	0.0897314	0.0000000E+000	0.000000000000000E+000	0.000704484
1	1	0	0	0	0	8	1589.05	1	0.703156	1.00121	0.149196	0.380108	0	0.105586	11	7.01063e-05	0.000000000000000E+000	418058	0.000000000000000E+000	0.000000000000000E+000	0.105586	0.105586	0.0000000E+000	0.000000000000000E+000	0.000704004
1	1	0	1	0	0	9	1645.05	1.778	0.733663	1.77864	0.0444701	0.455619	0	0.126561	11	8.52326e-05	0.000000000000000E+000	484841	0.000000000000000E+000	0.000000000000000E+000	0.126561	0.126561	0.0000000E+000	0.000000000000000E+000	0.00130492
1	1	0	1	0	0	9	1702.05	1.778	0.734018	1.77909	0.145863	0.557012	0	0.154726	11	0.000105899	0.000000000000000E+000	592513	0.000000000000000E+000	0.000000000000000E+000	0.154726	0.154726	0.0000000E+000	0.000000000000000E+000	0.00130588
1	1	0	1	0	0	9	1759.05	1.778	0.734194	1.77858	0.247256	0.658405	0	0.18289	11	0.000126574	0.000000000000000E+000	700237	0.000000000000000E+000	0.000000000000000E+000	0.18289	0.18289	0.0000000E+000	0.000000000000000E+000	0.00130582
1	1	0	0	0	0	10	1815.05	3.162	0.769287	3.16332	0.0474467	0.778783	0	0.216329	11	0.000151587	0.000000000000000E+000	798463	0.000000000000000E+000	0.000000000000000E+000	0.216329	0.216329	0.0000000E+000	0.000000000000000E+000	0.0024335
1	1	0	0	0	0	10	1872.05	3.162	0.770595	3.16338	0.227747	0.959083	0	0.266412	11	0.00019015	0.000000000000000E+000	982001	0.000000000000000E+000	0.000000000000000E+000	0.266412	0.266412	0.0000000E+000	0.000000000000000E+000	0.00243769
1	1	0	0	0	0	10	1929.05	3.162	0.771794	3.16255	0.408046	1.13938	0	0.316495	11	0.000228775	0.000000000000000E+000	1.16518e+06	0.000000000000000E+000	0.000000000000000E+000	0.316495	0.316495	0.0000000E+000	0.000000000000000E+000	0.00244084
1	1	0	1	0	0	11	1985.05	5.623	0.813277	5.62421	0.0281195	1.32882	0	0.369117	11	0.000269731	0.000000000000000E+000	1.30361e+06	0.000000000000000E+000	0.000000000000000E+000	0.369117	0.369117	0.0000000E+000	0.000000000000000E+000	0.00457404
1	1	0	1	0	0	11	2042.05	5.623	0.816722	5.62396	0.348688	1.64939	0	0.458164	11	0.000342317	0.000000000000000E+000	1.61264e+06	0.000000000000000E+000	0.000000000000000E+000	0.458164	0.458164	0.0000000E+000	0.000000000000000E+000	0.00459321
1	1	0	1	0	0	11	2099.05	5.623	0.819385	5.62459	0.669258	1.96996	0	0.547211	11	0.000415165	0.000000000000000E+000	1.92107e+06	0.000000000000000E+000	0.000000000000000E+000	0.547211	0.547211	0.0000000E+000	0.000000000000000E+000	0.00460871
1	1	0	1	0	0	11	2156.05	5.623	0.821456	5.62389	0.989828	2.29053	0	0.636259	11	0.000488235	0.000000000000000E+000	2.22918e+06	0.000000000000000E+000	0.000000000000000E+000	0.636259	0.636259	0.0000000E+000	0.000000000000000E+000	0.00461978
1	1	0	0	0	0	12	2212.05	10	0.879285	10.0014	0.52007	2.8331	0	0.786972	11	0.000619783	0.000000000000000E+000	2.61031e+06	0.000000000000000E+000	0.000000000000000E+000	0.786972	0.786972	0.0000000E+000	0.000000000000000E+000	0.00879405
1	1	0	0	0	0	12	2269.05	10	0.887585	10.0016	1.09015	3.40318	0	0.945327	11	0.000759699	0.000000000000000E+000	3.11176e+06	0.000000000000000E+000	0.000000000000000E+000	0.945327	0.945327	0.0000000E+000	0.000000000000000E+000	0.00887729
1	1	0	0	0	0	12	2326.05	10	0.895171	10.0017	1.66022	3.97325	0	1.10368	11	0.000900868	0.000000000000000E+000	3.60799e+06	0.000000000000000E+000	0.000000000000000E+000	1.10368	1.10368	0.0000000E+000	0.000000000000000E+000	0.00895322
1	1	0	0	0	0	12	2340.05	10	0.895558	10.001	1.80025	4.11327	0	1.14258	11	0.000935719	0.000000000000000E+000	3.73383e+06	0.000000000000000E+000	0.000000000000000E+000	1.14258	1.14258	0.0000000E+000	0.000000000000000E+000	0.00895652