File: Data_1/2022_01_25 Co50Ni25Fe25Nx elec3 set1_C05.mpt
EC-Lab ASCII FILE
Nb header lines : 65

Potentio Electrochemical Impedance Spectroscopy

Run on channel : 5 (SN 30436)
User :
CE vs. WE compliance from -10 V to 10 V
Electrode connection : standard
Potential control : Ewe
Ewe ctrl range : min = -10.00 V, max = 10.00 V
Safety Limits :
	Do not start on E overload
Acquisition started on : 01/25/2023 13:02:07.900
Loaded Setting File :  NONE
Saved on :
	File : 2022_01_25 Co50Ni25Fe25Nx elec3 set1_C05.mpr
	Directory : C:\Users\grupogalan\Documents\EC-Lab\Data\Scott\
	Host : 169.254.104.159
Device : VSP (SN 1176)
Address : USB
EC-Lab for windows v11.46 (software)
Internet server v11.40 (firmware)
Command interpretor v11.40 (firmware)
Electrode material :
Initial state :
Electrolyte :
Comments :
Electrode surface area : 0.000 cm²
Characteristic mass : 0.001 g
Equivalent Weight : 0.000 g/eq.
Density : 0.000 g/cm3
Volume (V) : 0.001 cm³
Record Ece
Record Analogic IN 1
Cycle Definition : Charge/Discharge alternance
Mode                Single sine
E (V)               0.0000
vs.                 Eoc
tE (h:m:s)          0:00:0.0000
record              0
dI                  0.000
unit dI             mA
dt (s)              0.000
fi                  200.000
unit fi             kHz
ff                  100.000
unit ff             mHz
Nd                  6
Points              per decade
spacing             Logarithmic
Va (mV)             10.0
pw                  0.10
Na                  2
corr                0
E range min (V)     -10.000
E range max (V)     10.000
I Range             Auto
Bandwidth           5
nc cycles           0
goto Ns'            0
nr cycles           0
inc. cycle          0

freq/Hz	Re(Z)/Ohm	-Im(Z)/Ohm	|Z|/Ohm	Phase(Z)/deg	time/s	<Ewe>/V	<I>/mA	Cs/µF	Cp/µF	cycle number	I Range	|Ewe|/V	|I|/A	Ns	(Q-Qo)/mA.h	<Ece>/V	|Ece|/V	Phase(Zce)/deg	|Zce|/Ohm	Re(Zce)/Ohm	-Im(Zce)/Ohm	Phase(Zwe-ce)/deg	|Zwe-ce|/Ohm	Re(Zwe-ce)/Ohm	-Im(Zwe-ce)/Ohm	Analog IN 1/V	Re(Y)/Ohm-1	Im(Y)/Ohm-1	|Y|/Ohm-1	Phase(Y)/deg	dq/mA.h
199998	1.3702	-1.33047	1.90987	44.1572	2.65156	-0.160365	-0.129332	-0.598119	-0.290263	1	9	0.00663109	0.003472	0	-1.72822e-05	0.0625946	0.00141963	-51.7469	0.40888	0.253153	0.321087	31.873	1.91158	1.62336	-1.00939	-1.62509e-05	0.375643	-0.364751	0.523594	-44.1572	-1.72822e-05
135123	1.00704	-0.567069	1.15573	29.3839	3.02856	-0.160292	-0.147743	-2.07709	-0.500053	1	9	0.0100951	0.00873481	0	-1.98344e-05	0.0713431	0.00609742	7.33733	0.698059	0.692343	-0.0891497	21.1141	1.82169	1.69939	-0.656218	-9.64916e-05	0.753942	-0.424546	0.865256	-29.3839	-2.55216e-06
91291.2	0.964526	-0.221686	0.989674	12.944	3.52754	-0.160571	-0.172676	-7.86417	-0.394589	1	9	0.0101269	0.0102326	0	-6.48937e-05	0.084485	0.00766355	13.5374	0.748936	0.728129	-0.175312	13.1997	1.73859	1.69265	-0.396998	-0.000176732	0.984758	-0.226336	1.01043	-12.944	-4.50593e-05
61674.2	0.947468	-0.0618531	0.949485	3.73511	4.02651	-0.16046	-0.136562	-41.721	-0.177053	1	9	0.00963995	0.0101528	0	-6.6239e-05	0.0603597	0.00762144	9.96375	0.750672	0.73935	-0.129885	6.4849	1.69768	1.68682	-0.191738	0.000224471	1.05097	-0.0686097	1.0532	-3.73511	-1.34528e-06
41669.8	0.954646	0.0713648	0.95731	-4.27521	4.40353	-0.160393	-0.147296	53.5199	0.297425	1	9	0.00951535	0.00993968	0	-5.9212e-05	0.0771691	0.00743918	7.4971	0.748433	0.742035	-0.0976525	0.887646	1.69688	1.69668	-0.0262877	0.000625675	1.04169	0.0778716	1.04459	4.27521	7.02699e-06
28151	0.990309	0.147176	1.00119	-8.4532	4.90254	-0.160502	-0.157992	38.414	0.830107	1	9	0.0100792	0.0100673	0	-4.34487e-05	0.0756028	0.00759587	4.66281	0.754512	0.752015	-0.0613354	-2.82056	1.74444	1.74232	0.0858405	-9.64916e-05	0.987965	0.146827	0.998816	8.4532	1.57633e-05
19020.9	1.00687	0.242768	1.03572	-13.5559	5.27954	-0.16068	-0.302188	34.4665	1.89361	1	9	0.0109711	0.0105927	0	1.95443e-05	0.0788118	0.00818362	2.59737	0.772575	0.771781	-0.0350108	-6.66228	1.79074	1.77865	0.207757	-0.000577936	0.93861	0.226309	0.965507	13.5559	6.2993e-05
12850.7	1.02483	0.372105	1.09029	-19.9555	5.65655	-0.160489	-0.16634	33.2833	3.87679	1	9	0.0102808	0.00942936	0	1.06742e-05	0.0723937	0.00733509	1.30565	0.7779	0.777698	-0.0177251	-11.1226	1.83703	1.80253	0.35438	0.000144231	0.862116	0.313026	0.917186	19.9555	-8.87009e-06
8684.68	1.0664	0.568944	1.20868	-28.0807	5.91157	-0.16064	-0.163545	32.2105	7.13693	1	9	0.0101341	0.00838439	0	-5.24695e-06	0.0730814	0.00627965	-0.694138	0.748969	0.748914	0.00907353	-17.6621	1.90512	1.81532	0.578017	-0.000577936	0.729957	0.389444	0.827347	28.0807	-1.59211e-05
5864.01	1.11225	0.840443	1.39407	-37.0756	6.16656	-0.160851	-0.178863	32.2936	11.7371	1	9	0.00973112	0.00698035	0	-1.48247e-05	0.0734825	0.00551874	-1.74716	0.79061	0.790243	0.0241049	-24.4384	2.08972	1.90249	0.864547	0.000144231	0.572309	0.432451	0.717322	37.0756	-9.57779e-06
3960.08	1.11784	1.10336	1.57066	-44.6266	6.61186	-0.160821	-0.225376	36.4249	17.9751	1	9	0.00981854	0.00625122	0	-3.79501e-05	0.0714195	0.00509423	0.280385	0.814917	0.814908	-0.0039879	-29.6318	2.22354	1.93275	1.09937	0.000384953	0.453122	0.447254	0.636675	44.6266	-2.31253e-05
2678.72	1.24947	1.63722	2.05953	-52.6503	7.04112	-0.160699	-0.176515	36.2899	22.9331	1	9	0.00998304	0.00484723	0	-6.24762e-05	0.0752207	0.0037312	-0.666789	0.76976	0.769708	0.008958	-39.1894	2.60519	2.01918	1.64618	-1.62509e-05	0.294571	0.385984	0.485547	52.6503	-2.45262e-05
1808.26	1.2567	2.28351	2.60648	-61.1745	7.48709	-0.160452	-0.173757	38.5438	29.5838	1	9	0.00944503	0.00362368	0	-8.69477e-05	0.0742465	0.00286223	-5.93373	0.78987	0.785638	0.0816553	-49.1892	3.12492	2.04233	2.36517	6.39899e-05	0.184979	0.336121	0.38366	61.1745	-2.44715e-05
1221.96	1.31218	3.28038	3.53308	-68.1982	8.1756	-0.160398	-0.0276599	39.7047	34.228	1	10	0.00982372	0.0027805	0	-0.000102288	0.0717442	0.00256045	-5.81182	0.920862	0.916128	0.0932479	-56.5549	4.0431	2.2283	3.37362	0.000144231	0.10512	0.262794	0.283039	68.1982	-1.53402e-05
825.264	1.38822	4.70137	4.90204	-73.5492	8.62083	-0.160356	-0.0276338	41.0207	37.7309	1	10	0.00941291	0.0019202	0	-0.000107207	0.0724128	0.001633	-11.3563	0.850431	0.833781	0.167458	-65.4693	5.3519	2.222	4.86883	-9.64916e-05	0.0577703	0.195646	0.203997	73.5492	-4.9187e-06
558.036	1.66681	6.96465	7.16133	-76.5409	9.0676	-0.16058	-0.0282005	40.9505	38.7321	1	10	0.0095494	0.00133347	0	-0.000109217	0.0747814	0.00113382	-16.6065	0.850276	0.814812	0.243006	-71.0013	7.62291	2.48162	7.20766	-1.62509e-05	0.0325011	0.135804	0.139639	76.5409	-2.01029e-06
377.051	1.8234	9.85572	10.023	-79.5183	9.5108	-0.160565	-0.0239802	42.8283	41.4109	1	10	0.00924613	0.000922493	0	-0.000112869	0.0744185	0.00095461	-18.8958	1.03482	0.979048	0.335123	-74.6239	10.5692	2.80244	10.1908	0.000465194	0.0181505	0.0981059	0.0997707	79.5183	-3.65183e-06
254.755	2.66524	13.6128	13.8713	-78.9223	9.95711	-0.160477	-0.0230706	45.8931	44.1989	1	10	0.0088972	0.00064141	0	-0.000115802	0.0710948	0.000347418	-31.0131	0.541647	0.464218	0.279075	-77.3048	14.24	3.12946	13.8919	0.000384953	0.0138517	0.070748	0.0720913	78.9223	-2.93314e-06
172.037	2.9753	20.1873	20.4054	-81.6158	10.3975	-0.160635	-0.0276898	45.8268	44.8526	1	10	0.00909937	0.000445929	0	-0.000119457	0.0728903	0.000698812	-26.2405	1.56709	1.4056	0.692873	-78.1506	21.3348	4.3809	20.8802	0.000384953	0.00714564	0.0484829	0.0490066	81.6158	-3.65555e-06
116.227	4.53496	29.3298	29.6783	-81.2106	11.0797	-0.160341	-0.00253784	46.6878	45.5977	1	11	0.00924351	0.000311457	0	-0.000121711	0.0663576	0.000846076	-67.8613	2.71651	1.02372	2.51623	-80.0988	32.3275	5.55868	31.846	0.000545434	0.00514867	0.033299	0.0336947	81.2106	-2.25374e-06
78.5176	6.0326	43.2049	43.624	-82.0513	11.5336	-0.160789	-0.00395642	46.9159	46.0188	1	11	0.00937373	0.000214876	0	-0.00012226	0.0699105	0.000301975	-30.876	1.40535	1.20618	0.721197	-80.6421	44.5185	7.23878	43.9261	0.000224471	0.00316996	0.0227029	0.0229232	82.0513	-5.49002e-07