File: Data_1/2022_01_25 Co30Ni60Fe10Nx 1mg  ref309 elect1 tafel_C02.mpt
EC-Lab ASCII FILE
Nb header lines : 53

Chronopotentiometry

Run on channel : 2 (SN 12477)
User :
CE vs. WE compliance from -10 V to 10 V
Electrode connection : standard
Potential control : Ewe
Ewe ctrl range : min = -2.50 V, max = 2.50 V
Safety Limits :
	Do not start on E overload
Acquisition started on : 01/25/2023 15:36:48.991
Loaded Setting File :  C:\Users\grupogalan\Documents\EC-Lab\Data\Scott\_cyclic_pause_tafel.mps
Saved on :
	File : 2022_01_25 Co30Ni60Fe10Nx 1mg  ref309 elect1 tafel_C02.mpr
	Directory : C:\Users\grupogalan\Documents\EC-Lab\Data\Scott\
	Host : 169.254.104.159
Device : VSP (SN 1176)
Address : USB
EC-Lab for windows v11.46 (software)
Internet server v11.40 (firmware)
Command interpretor v11.40 (firmware)
Electrode material :
Initial state :
Electrolyte :
Comments :
Electrode surface area : 0.000 cm²
Characteristic mass : 0.001 g
Equivalent Weight : 0.000 g/eq.
Density : 0.000 g/cm3
Volume (V) : 0.001 cm³
Cycle Definition : Charge/Discharge alternance
Ns                  0                   1                   2                   3                   4                   5                   6                   7                   8                   9                   10                  11                  12
Is                  10.000              18.000              32.000              56.000              100.000             178.000             316.000             562.000             1.000               1.778               3.162               5.623               10.000
unit Is             µA                  µA                  µA                  µA                  µA                  µA                  µA                  µA                  mA                  mA                  mA                  mA                  mA
vs.                 <None>              <None>              <None>              <None>              <None>              <None>              <None>              <None>              <None>              <None>              <None>              <None>              <None>
ts (h:m:s)          0:03:0.0000         0:03:0.0000         0:03:0.0000         0:03:0.0000         0:03:0.0000         0:03:0.0000         0:03:0.0000         0:03:0.0000         0:03:0.0000         0:03:0.0000         0:03:0.0000         0:03:0.0000         0:03:0.0000
EM (V)              pass                pass                pass                pass                pass                pass                pass                pass                pass                pass                pass                pass                pass
dQM                 500.000             900.000             1.600               2.800               5.000               8.900               15.800              28.100              50.000              88.900              158.100             281.150             500.000
unit dQM            nA.h                nA.h                µA.h                µA.h                µA.h                µA.h                µA.h                µA.h                µA.h                µA.h                µA.h                µA.h                µA.h
record              <Ewe>               <Ewe>               <Ewe>               <Ewe>               <Ewe>               <Ewe>               <Ewe>               <Ewe>               <Ewe>               <Ewe>               <Ewe>               <Ewe>               <Ewe>
dEs (mV)            0.00                0.00                0.00                0.00                0.00                0.00                0.00                0.00                0.00                0.00                0.00                0.00                0.00
dts (s)             1.0000              1.0000              1.0000              1.0000              1.0000              1.0000              1.0000              1.0000              1.0000              1.0000              1.0000              1.0000              1.0000
E range min (V)     -2.500              -2.500              -2.500              -2.500              -2.500              -2.500              -2.500              -2.500              -2.500              -2.500              -2.500              -2.500              -2.500
E range max (V)     2.500               2.500               2.500               2.500               2.500               2.500               2.500               2.500               2.500               2.500               2.500               2.500               2.500
I Range             10 mA               10 mA               10 mA               10 mA               10 mA               10 mA               10 mA               10 mA               10 mA               10 mA               10 mA               10 mA               10 mA
Bandwidth           5                   5                   5                   5                   5                   5                   5                   5                   5                   5                   5                   5                   5
goto Ns'            0                   0                   0                   0                   0                   0                   0                   0                   0                   0                   0                   0                   0
nc cycles           0                   0                   0                   0                   0                   0                   0                   0                   0                   0                   0                   0                   0

mode	ox/red	error	control changes	Ns changes	counter inc.	Ns	time/s	control/mA	<Ewe>/V	I/mA	dQ/C	(Q-Qo)/C	half cycle	Q charge/discharge/mA.h	I Range	Energy charge/W.h	Energy discharge/W.h	Capacitance charge/µF	Capacitance discharge/µF	Q discharge/mA.h	Q charge/mA.h	Capacity/mA.h	Efficiency/%	cycle number	P/W
1	1	0	1	0	0	0	1	0.01	0.325533	0.0113894	1.12377e-05	1.12377e-05	0	3.12158e-06	11	1.01618e-09	0.000000000000000E+000	0.000000000000000E+000	0.000000000000000E+000	0.000000000000000E+000	3.12158e-06	3.12158e-06	0.0000000E+000	0.000000000000000E+000	3.70763e-06
1	1	0	1	0	0	0	58	0.01	0.350986	0.0118348	0.000684678	0.000684678	0	0.000190188	11	6.59269e-08	0.000000000000000E+000	26898.8	0.000000000000000E+000	0.000000000000000E+000	0.000190188	0.000190188	0.0000000E+000	0.000000000000000E+000	4.15386e-06
1	1	0	1	0	0	0	115	0.01	0.345867	0.0117076	0.00135802	0.00135802	0	0.000377228	11	1.31271e-07	0.000000000000000E+000	66784.4	0.000000000000000E+000	0.000000000000000E+000	0.000377228	0.000377228	0.0000000E+000	0.000000000000000E+000	4.04926e-06
1	1	0	1	0	0	0	172	0.01	0.330972	0.0120893	0.00203079	0.00203079	0	0.000564108	11	1.94589e-07	0.000000000000000E+000	373341	0.000000000000000E+000	0.000000000000000E+000	0.000564108	0.000564108	0.0000000E+000	0.000000000000000E+000	4.00122e-06
1	1	0	0	0	0	1	228.05	0.018	0.349337	0.0195971	0.000921445	0.00304725	0	0.000846459	11	2.92377e-07	0.000000000000000E+000	128014	0.000000000000000E+000	0.000000000000000E+000	0.000846459	0.000846459	0.0000000E+000	0.000000000000000E+000	6.84598e-06
1	1	0	0	0	0	1	285.05	0.018	0.343324	0.0191517	0.00201604	0.00414185	0	0.00115051	11	3.97816e-07	0.000000000000000E+000	232797	0.000000000000000E+000	0.000000000000000E+000	0.00115051	0.00115051	0.0000000E+000	0.000000000000000E+000	6.57524e-06
1	1	0	0	0	0	1	342.05	0.018	0.334068	0.0189608	0.00311009	0.0052359	0	0.00145442	11	5.00751e-07	0.000000000000000E+000	613419	0.000000000000000E+000	0.000000000000000E+000	0.00145442	0.00145442	0.0000000E+000	0.000000000000000E+000	6.33421e-06
1	1	0	1	0	0	2	398.05	0.032	0.371338	0.0325766	0.00126834	0.00684998	0	0.00190277	11	6.61244e-07	0.000000000000000E+000	149545	0.000000000000000E+000	0.000000000000000E+000	0.00190277	0.00190277	0.0000000E+000	0.000000000000000E+000	1.20969e-05
1	1	0	1	0	0	2	455.05	0.032	0.380251	0.0327675	0.00317012	0.00875176	0	0.00243104	11	8.60014e-07	0.000000000000000E+000	159943	0.000000000000000E+000	0.000000000000000E+000	0.00243104	0.00243104	0.0000000E+000	0.000000000000000E+000	1.24599e-05
1	1	0	1	0	0	2	512.05	0.032	0.385098	0.0328947	0.00507175	0.0106534	0	0.00295927	11	1.06217e-06	0.000000000000000E+000	178851	0.000000000000000E+000	0.000000000000000E+000	0.00295927	0.00295927	0.0000000E+000	0.000000000000000E+000	1.26677e-05
1	1	0	0	0	0	3	568.051	0.056	0.414906	0.0578358	0.00161841	0.013206	0	0.00366834	11	1.34591e-06	0.000000000000000E+000	147762	0.000000000000000E+000	0.000000000000000E+000	0.00366834	0.00366834	0.0000000E+000	0.000000000000000E+000	2.39964e-05
1	1	0	0	0	0	3	625.051	0.056	0.437403	0.0577722	0.00491189	0.0164995	0	0.0045832	11	1.73604e-06	0.000000000000000E+000	147488	0.000000000000000E+000	0.000000000000000E+000	0.0045832	0.0045832	0.0000000E+000	0.000000000000000E+000	2.52697e-05
1	1	0	0	0	0	3	682.051	0.056	0.459457	0.0573904	0.00820511	0.0197927	0	0.00549798	11	2.14644e-06	0.000000000000000E+000	147790	0.000000000000000E+000	0.000000000000000E+000	0.00549798	0.00549798	0.0000000E+000	0.000000000000000E+000	2.63684e-05
1	1	0	1	0	0	4	738.051	0.1	0.530714	0.101292	0.00182914	0.0238178	0	0.00661605	11	2.69166e-06	0.000000000000000E+000	116081	0.000000000000000E+000	0.000000000000000E+000	0.00661605	0.00661605	0.0000000E+000	0.000000000000000E+000	5.3757e-05
1	1	0	1	0	0	4	795.051	0.1	0.569904	0.101864	0.00762057	0.0296092	0	0.00822478	11	3.58962e-06	0.000000000000000E+000	121165	0.000000000000000E+000	0.000000000000000E+000	0.00822478	0.00822478	0.0000000E+000	0.000000000000000E+000	5.80529e-05
1	1	0	1	0	0	4	852.051	0.1	0.573735	0.101546	0.0134129	0.0354015	0	0.00983376	11	4.51024e-06	0.000000000000000E+000	142632	0.000000000000000E+000	0.000000000000000E+000	0.00983376	0.00983376	0.0000000E+000	0.000000000000000E+000	5.82606e-05
1	1	0	0	0	0	5	908.051	0.178	0.595934	0.179423	0.00143554	0.0417144	0	0.0115873	11	5.52508e-06	0.000000000000000E+000	154268	0.000000000000000E+000	0.000000000000000E+000	0.0115873	0.0115873	0.0000000E+000	0.000000000000000E+000	0.000106925
1	1	0	0	0	0	5	965.051	0.178	0.595591	0.178278	0.0116637	0.0519425	0	0.0144285	11	7.21764e-06	0.000000000000000E+000	192338	0.000000000000000E+000	0.000000000000000E+000	0.0144285	0.0144285	0.0000000E+000	0.000000000000000E+000	0.000106181
1	1	0	0	0	0	5	1022.05	0.178	0.595436	0.179678	0.0218911	0.0621699	0	0.0172694	11	8.90996e-06	0.000000000000000E+000	230341	0.000000000000000E+000	0.000000000000000E+000	0.0172694	0.0172694	0.0000000E+000	0.000000000000000E+000	0.000106987
1	1	0	0	0	0	5	1079.05	0.178	0.595701	0.179869	0.0321188	0.0723976	0	0.0201104	11	1.06022e-05	0.000000000000000E+000	267972	0.000000000000000E+000	0.000000000000000E+000	0.0201104	0.0201104	0.0000000E+000	0.000000000000000E+000	0.000107148
1	1	0	1	0	0	6	1135.05	0.316	0.616749	0.317236	0.0174669	0.0900439	0	0.0250122	11	1.36251e-05	0.000000000000000E+000	309199	0.000000000000000E+000	0.000000000000000E+000	0.0250122	0.0250122	0.0000000E+000	0.000000000000000E+000	0.000195655
1	1	0	1	0	0	6	1192.05	0.316	0.616822	0.317617	0.035569	0.108146	0	0.0300406	11	1.67265e-05	0.000000000000000E+000	371267	0.000000000000000E+000	0.000000000000000E+000	0.0300406	0.0300406	0.0000000E+000	0.000000000000000E+000	0.000195913
1	1	0	1	0	0	6	1249.05	0.316	0.617059	0.317426	0.053671	0.126248	0	0.0350689	11	1.98284e-05	0.000000000000000E+000	433058	0.000000000000000E+000	0.000000000000000E+000	0.0350689	0.0350689	0.0000000E+000	0.000000000000000E+000	0.000195871
1	1	0	0	0	0	7	1305.05	0.562	0.641018	0.563083	0.0253669	0.155108	0	0.0430856	11	2.49443e-05	0.000000000000000E+000	491650	0.000000000000000E+000	0.000000000000000E+000	0.0430856	0.0430856	0.0000000E+000	0.000000000000000E+000	0.000360946
1	1	0	0	0	0	7	1362.05	0.562	0.641028	0.563847	0.057499	0.18724	0	0.0520112	11	3.06658e-05	0.000000000000000E+000	593480	0.000000000000000E+000	0.000000000000000E+000	0.0520112	0.0520112	0.0000000E+000	0.000000000000000E+000	0.000361442
1	1	0	0	0	0	7	1419.05	0.562	0.64153	0.56321	0.0896312	0.219373	0	0.0609368	11	3.63897e-05	0.000000000000000E+000	694222	0.000000000000000E+000	0.000000000000000E+000	0.0609368	0.0609368	0.0000000E+000	0.000000000000000E+000	0.000361317
1	1	0	1	0	0	8	1475.05	1	0.66975	1.00184	0.035052	0.266263	0	0.073962	11	4.50222e-05	0.000000000000000E+000	773531	0.000000000000000E+000	0.000000000000000E+000	0.073962	0.073962	0.0000000E+000	0.000000000000000E+000	0.000670984
1	1	0	1	0	0	8	1532.05	1	0.670126	1.00102	0.0921368	0.323348	0	0.0898189	11	5.5644e-05	0.000000000000000E+000	938347	0.000000000000000E+000	0.000000000000000E+000	0.0898189	0.0898189	0.0000000E+000	0.000000000000000E+000	0.000670806
1	1	0	1	0	0	8	1589.05	1	0.670654	1.00133	0.149222	0.380433	0	0.105676	11	6.6273e-05	0.000000000000000E+000	1.10232e+06	0.000000000000000E+000	0.000000000000000E+000	0.105676	0.105676	0.0000000E+000	0.000000000000000E+000	0.000671548
1	1	0	0	0	0	9	1645.05	1.778	0.70375	1.77902	0.0444741	0.455953	0	0.126654	11	8.0755e-05	0.000000000000000E+000	1.20553e+06	0.000000000000000E+000	0.000000000000000E+000	0.126654	0.126654	0.0000000E+000	0.000000000000000E+000	0.00125199
1	1	0	0	0	0	9	1702.05	1.778	0.704067	1.77953	0.145876	0.557355	0	0.154821	11	0.000100582	0.000000000000000E+000	1.4724e+06	0.000000000000000E+000	0.000000000000000E+000	0.154821	0.154821	0.0000000E+000	0.000000000000000E+000	0.00125291
1	1	0	0	0	0	9	1759.05	1.778	0.704615	1.77858	0.247278	0.658757	0	0.182988	11	0.000120422	0.000000000000000E+000	1.73777e+06	0.000000000000000E+000	0.000000000000000E+000	0.182988	0.182988	0.0000000E+000	0.000000000000000E+000	0.00125321
1	1	0	1	0	0	10	1815.05	3.162	0.742687	3.16274	0.047449	0.779145	0	0.216429	11	0.000144498	0.000000000000000E+000	1.86776e+06	0.000000000000000E+000	0.000000000000000E+000	0.216429	0.216429	0.0000000E+000	0.000000000000000E+000	0.00234893
1	1	0	1	0	0	10	1872.05	3.162	0.743563	3.16332	0.227756	0.959452	0	0.266514	11	0.00018172	0.000000000000000E+000	2.29517e+06	0.000000000000000E+000	0.000000000000000E+000	0.266514	0.266514	0.0000000E+000	0.000000000000000E+000	0.00235213
1	1	0	1	0	0	10	1929.05	3.162	0.74463	3.16389	0.408063	1.13976	0	0.3166	11	0.000218991	0.000000000000000E+000	2.71956e+06	0.000000000000000E+000	0.000000000000000E+000	0.3166	0.3166	0.0000000E+000	0.000000000000000E+000	0.00235593
1	1	0	0	0	0	11	1985.05	5.623	0.787892	5.62396	0.0281199	1.32921	0	0.369224	11	0.000258539	0.000000000000000E+000	2.87483e+06	0.000000000000000E+000	0.000000000000000E+000	0.369224	0.369224	0.0000000E+000	0.000000000000000E+000	0.00443107
1	1	0	0	0	0	11	2042.05	5.623	0.790414	5.62421	0.348692	1.64978	0	0.458272	11	0.000328801	0.000000000000000E+000	3.54882e+06	0.000000000000000E+000	0.000000000000000E+000	0.458272	0.458272	0.0000000E+000	0.000000000000000E+000	0.00444545
1	1	0	0	0	0	11	2099.05	5.623	0.792545	5.62383	0.669264	1.97035	0	0.54732	11	0.000399227	0.000000000000000E+000	4.21905e+06	0.000000000000000E+000	0.000000000000000E+000	0.54732	0.54732	0.0000000E+000	0.000000000000000E+000	0.00445714
1	1	0	0	0	0	11	2156.05	5.623	0.793543	5.62338	0.989837	2.29092	0	0.636368	11	0.000469815	0.000000000000000E+000	4.89502e+06	0.000000000000000E+000	0.000000000000000E+000	0.636368	0.636368	0.0000000E+000	0.000000000000000E+000	0.0044624
1	1	0	1	0	0	12	2212.05	10	0.847654	10.0019	0.520072	2.83349	0	0.787081	11	0.00059683	0.000000000000000E+000	5.42688e+06	0.000000000000000E+000	0.000000000000000E+000	0.787081	0.787081	0.0000000E+000	0.000000000000000E+000	0.00847813
1	1	0	1	0	0	12	2269.05	10	0.850205	10.0012	1.09015	3.40357	0	0.945437	11	0.000731206	0.000000000000000E+000	6.48704e+06	0.000000000000000E+000	0.000000000000000E+000	0.945437	0.945437	0.0000000E+000	0.000000000000000E+000	0.00850311
1	1	0	1	0	0	12	2326.05	10	0.853459	10.0018	1.66023	3.97365	0	1.10379	11	0.000866139	0.000000000000000E+000	7.5269e+06	0.000000000000000E+000	0.000000000000000E+000	1.10379	1.10379	0.0000000E+000	0.000000000000000E+000	0.00853614
1	1	0	1	0	0	12	2340.05	10	0.854185	10.0019	1.80025	4.11367	0	1.14269	11	0.000899359	0.000000000000000E+000	7.78143e+06	0.000000000000000E+000	0.000000000000000E+000	1.14269	1.14269	0.0000000E+000	0.000000000000000E+000	0.00854345