File: Data_1/2022_01_25 Co50Ni25Fe25Nx elec3 set2_C05_03_CP_C02.mpt
EC-Lab ASCII FILE
Nb header lines : 52

Chronopotentiometry

Run on channel : 2 (SN 12477)
User :
CE vs. WE compliance from -10 V to 10 V
Electrode connection : standard
Potential control : Ewe
Ewe ctrl range : min = -2.50 V, max = 2.50 V
Safety Limits :
	Do not start on E overload
Acquisition started on : 01/25/2023 13:03:00.629
Loaded Setting File :  C:\Users\grupogalan\Documents\EC-Lab\Data\Scott\2022_01_24 Co50Ni25Fe25Nx elec1 set1.1.mps
Saved on :
	File : 2022_01_25 Co50Ni25Fe25Nx elec3 set2_C05_03_CP_C02.mpr
	Directory : C:\Users\grupogalan\Documents\EC-Lab\Data\Scott\
	Host : 169.254.104.159
Device : VSP (SN 1176)
Address : USB
EC-Lab for windows v11.46 (software)
Internet server v11.40 (firmware)
Command interpretor v11.40 (firmware)
Electrode material :
Initial state :
Electrolyte :
Comments :
Electrode surface area : 0.000 cm²
Characteristic mass : 0.001 g
Equivalent Weight : 0.000 g/eq.
Density : 0.000 g/cm3
Volume (V) : 0.001 cm³
Cycle Definition : Charge/Discharge alternance
Is                  10.000
unit Is             mA
vs.                 <None>
ts (h:m:s)          2:00:0.0000
EM (V)              pass
dQM                 20.000
unit dQM            mA.h
record              <Ewe>
dEs (mV)            0.00
dts (s)             1.0000
E range min (V)     -2.500
E range max (V)     2.500
I Range             10 mA
Bandwidth           5
goto Ns'            0
nc cycles           0

mode	ox/red	error	control changes	Ns changes	counter inc.	Ns	time/s	control/mA	<Ewe>/V	I/mA	dQ/C	(Q-Qo)/C	half cycle	Q charge/discharge/mA.h	I Range	Energy charge/W.h	Energy discharge/W.h	Capacitance charge/µF	Capacitance discharge/µF	Q discharge/mA.h	Q charge/mA.h	Capacity/mA.h	Efficiency/%	cycle number	P/W
1	1	0	0	0	0	0	675.576	10	0.678371	10.0016	0.00947735	0.00947735	0	0.0026326	11	1.78588e-06	0.000000000000000E+000	0.000000000000000E+000	0.000000000000000E+000	0.000000000000000E+000	0.0026326	0.0026326	0.0000000E+000	0.000000000000000E+000	0.00678476
1	1	0	0	0	0	0	839.576	10	0.694258	10.0013	1.64972	1.64972	0	0.458255	11	0.00031873	0.000000000000000E+000	1.03838e+08	0.000000000000000E+000	0.000000000000000E+000	0.458255	0.458255	0.0000000E+000	0.000000000000000E+000	0.00694348
1	1	0	0	0	0	0	1003.58	10	0.694714	10.0019	3.28995	3.28995	0	0.913876	11	0.000635104	0.000000000000000E+000	2.01301e+08	0.000000000000000E+000	0.000000000000000E+000	0.913876	0.913876	0.0000000E+000	0.000000000000000E+000	0.00694849
1	1	0	0	0	0	0	1167.58	10	0.695761	10.0012	4.93019	4.93019	0	1.3695	11	0.000951775	0.000000000000000E+000	2.835e+08	0.000000000000000E+000	0.000000000000000E+000	1.3695	1.3695	0.0000000E+000	0.000000000000000E+000	0.00695843
1	1	0	0	0	0	0	1331.58	10	0.696863	10.0021	6.57043	6.57043	0	1.82512	11	0.00126907	0.000000000000000E+000	3.55294e+08	0.000000000000000E+000	0.000000000000000E+000	1.82512	1.82512	0.0000000E+000	0.000000000000000E+000	0.00697012
1	1	0	0	0	0	0	1495.58	10	0.698783	10.0016	8.21066	8.21066	0	2.28074	11	0.00158704	0.000000000000000E+000	4.02229e+08	0.000000000000000E+000	0.000000000000000E+000	2.28074	2.28074	0.0000000E+000	0.000000000000000E+000	0.00698897
1	1	0	0	0	0	0	1659.58	10	0.700929	10.0009	9.8509	9.8509	0	2.73636	11	0.0019059	0.000000000000000E+000	4.36686e+08	0.000000000000000E+000	0.000000000000000E+000	2.73636	2.73636	0.0000000E+000	0.000000000000000E+000	0.00700989
1	1	0	0	0	0	0	1823.58	10	0.703088	10.0014	11.4911	11.4911	0	3.19198	11	0.0022257	0.000000000000000E+000	4.64902e+08	0.000000000000000E+000	0.000000000000000E+000	3.19198	3.19198	0.0000000E+000	0.000000000000000E+000	0.00703184
1	1	0	0	0	0	0	1987.58	10	0.705532	10.001	13.1314	13.1314	0	3.6476	11	0.0025466	0.000000000000000E+000	4.83448e+08	0.000000000000000E+000	0.000000000000000E+000	3.6476	3.6476	0.0000000E+000	0.000000000000000E+000	0.00705602
1	1	0	0	0	0	0	2151.58	10	0.70807	10.0015	14.7716	14.7716	0	4.10322	11	0.00286863	0.000000000000000E+000	4.97378e+08	0.000000000000000E+000	0.000000000000000E+000	4.10322	4.10322	0.0000000E+000	0.000000000000000E+000	0.00708175
1	1	0	0	0	0	0	2315.58	10	0.710462	10.0016	16.4118	16.4118	0	4.55885	11	0.0031918	0.000000000000000E+000	5.11407e+08	0.000000000000000E+000	0.000000000000000E+000	4.55885	4.55885	0.0000000E+000	0.000000000000000E+000	0.00710573
1	1	0	0	0	0	0	2479.58	10	0.71301	10.0014	18.0521	18.0521	0	5.01447	11	0.00351611	0.000000000000000E+000	5.21139e+08	0.000000000000000E+000	0.000000000000000E+000	5.01447	5.01447	0.0000000E+000	0.000000000000000E+000	0.00713112
1	1	0	0	0	0	0	2643.58	10	0.715287	10.0013	19.6923	19.6923	0	5.47009	11	0.00384149	0.000000000000000E+000	5.33435e+08	0.000000000000000E+000	0.000000000000000E+000	5.47009	5.47009	0.0000000E+000	0.000000000000000E+000	0.0071538
1	1	0	0	0	0	0	2807.58	10	0.717922	10.0016	21.3326	21.3326	0	5.92571	11	0.00416801	0.000000000000000E+000	5.39366e+08	0.000000000000000E+000	0.000000000000000E+000	5.92571	5.92571	0.0000000E+000	0.000000000000000E+000	0.00718038
1	1	0	0	0	0	0	2971.58	10	0.720061	10.001	22.9728	22.9728	0	6.38133	11	0.00449554	0.000000000000000E+000	5.51037e+08	0.000000000000000E+000	0.000000000000000E+000	6.38133	6.38133	0.0000000E+000	0.000000000000000E+000	0.00720136
1	1	0	0	0	0	0	3135.58	10	0.722182	10.0021	24.613	24.613	0	6.83696	11	0.0048241	0.000000000000000E+000	5.61792e+08	0.000000000000000E+000	0.000000000000000E+000	6.83696	6.83696	0.0000000E+000	0.000000000000000E+000	0.00722336
1	1	0	0	0	0	0	3299.58	10	0.724237	10.002	26.2533	26.2533	0	7.29258	11	0.00515361	0.000000000000000E+000	5.72388e+08	0.000000000000000E+000	0.000000000000000E+000	7.29258	7.29258	0.0000000E+000	0.000000000000000E+000	0.00724382
1	1	0	0	0	0	0	3463.58	10	0.726252	10.001	27.8935	27.8935	0	7.7482	11	0.00548406	0.000000000000000E+000	5.82557e+08	0.000000000000000E+000	0.000000000000000E+000	7.7482	7.7482	0.0000000E+000	0.000000000000000E+000	0.00726323
1	1	0	0	0	0	0	3627.58	10	0.728257	10.0011	29.5338	29.5338	0	8.20382	11	0.00581541	0.000000000000000E+000	5.92025e+08	0.000000000000000E+000	0.000000000000000E+000	8.20382	8.20382	0.0000000E+000	0.000000000000000E+000	0.00728338
1	1	0	0	0	0	0	3791.58	10	0.729944	10.0014	31.174	31.174	0	8.65945	11	0.00614762	0.000000000000000E+000	6.04462e+08	0.000000000000000E+000	0.000000000000000E+000	8.65945	8.65945	0.0000000E+000	0.000000000000000E+000	0.00730048
1	1	0	0	0	0	0	3955.58	10	0.731757	10.0018	32.8142	32.8142	0	9.11507	11	0.00648065	0.000000000000000E+000	6.1466e+08	0.000000000000000E+000	0.000000000000000E+000	9.11507	9.11507	0.0000000E+000	0.000000000000000E+000	0.00731889
1	1	0	0	0	0	0	4119.58	10	0.73355	10.0017	34.4545	34.4545	0	9.57069	11	0.00681447	0.000000000000000E+000	6.24407e+08	0.000000000000000E+000	0.000000000000000E+000	9.57069	9.57069	0.0000000E+000	0.000000000000000E+000	0.00733674
1	1	0	0	0	0	0	4283.58	10	0.735239	10.0008	36.0947	36.0947	0	10.0263	11	0.00714907	0.000000000000000E+000	6.34704e+08	0.000000000000000E+000	0.000000000000000E+000	10.0263	10.0263	0.0000000E+000	0.000000000000000E+000	0.00735298
1	1	0	0	0	0	0	4447.58	10	0.737034	10.0017	37.735	37.735	0	10.4819	11	0.00748445	0.000000000000000E+000	6.43241e+08	0.000000000000000E+000	0.000000000000000E+000	10.4819	10.4819	0.0000000E+000	0.000000000000000E+000	0.00737163
1	1	0	0	0	0	0	4611.58	10	0.738593	10.0014	39.3752	39.3752	0	10.9376	11	0.00782057	0.000000000000000E+000	6.53831e+08	0.000000000000000E+000	0.000000000000000E+000	10.9376	10.9376	0.0000000E+000	0.000000000000000E+000	0.00738694
1	1	0	0	0	0	0	4775.58	10	0.740134	10.0007	41.0154	41.0154	0	11.3932	11	0.00815747	0.000000000000000E+000	6.64072e+08	0.000000000000000E+000	0.000000000000000E+000	11.3932	11.3932	0.0000000E+000	0.000000000000000E+000	0.00740188
1	1	0	0	0	0	0	4939.58	10	0.741736	10.0018	42.6557	42.6557	0	11.8488	11	0.00849506	0.000000000000000E+000	6.73165e+08	0.000000000000000E+000	0.000000000000000E+000	11.8488	11.8488	0.0000000E+000	0.000000000000000E+000	0.00741871
1	1	0	0	0	0	0	5103.58	10	0.743185	10.0018	44.2959	44.2959	0	12.3044	11	0.00883334	0.000000000000000E+000	6.83422e+08	0.000000000000000E+000	0.000000000000000E+000	12.3044	12.3044	0.0000000E+000	0.000000000000000E+000	0.0074332
1	1	0	0	0	0	0	5267.58	10	0.744667	10.0017	45.9362	45.9362	0	12.76	11	0.0091723	0.000000000000000E+000	6.92891e+08	0.000000000000000E+000	0.000000000000000E+000	12.76	12.76	0.0000000E+000	0.000000000000000E+000	0.00744792
1	1	0	0	0	0	0	5431.58	10	0.746269	10.0012	47.5764	47.5764	0	13.2157	11	0.00951194	0.000000000000000E+000	7.00704e+08	0.000000000000000E+000	0.000000000000000E+000	13.2157	13.2157	0.0000000E+000	0.000000000000000E+000	0.00746361
1	1	0	0	0	0	0	5595.58	10	0.747605	10.0014	49.2166	49.2166	0	13.6713	11	0.00985224	0.000000000000000E+000	7.10871e+08	0.000000000000000E+000	0.000000000000000E+000	13.6713	13.6713	0.0000000E+000	0.000000000000000E+000	0.00747707
1	1	0	0	0	0	0	5759.58	10	0.749018	10.0011	50.8569	50.8569	0	14.1269	11	0.0101932	0.000000000000000E+000	7.19866e+08	0.000000000000000E+000	0.000000000000000E+000	14.1269	14.1269	0.0000000E+000	0.000000000000000E+000	0.00749101
1	1	0	0	0	0	0	5923.58	10	0.750504	10.0017	52.4971	52.4971	0	14.5825	11	0.0105348	0.000000000000000E+000	7.2778e+08	0.000000000000000E+000	0.000000000000000E+000	14.5825	14.5825	0.0000000E+000	0.000000000000000E+000	0.0075063
1	1	0	0	0	0	0	6087.58	10	0.751774	10.0014	54.1373	54.1373	0	15.0382	11	0.010877	0.000000000000000E+000	7.37532e+08	0.000000000000000E+000	0.000000000000000E+000	15.0382	15.0382	0.0000000E+000	0.000000000000000E+000	0.00751877
1	1	0	0	0	0	0	6251.58	10	0.753139	10.0014	55.7776	55.7776	0	15.4938	11	0.0112199	0.000000000000000E+000	7.46003e+08	0.000000000000000E+000	0.000000000000000E+000	15.4938	15.4938	0.0000000E+000	0.000000000000000E+000	0.00753247
1	1	0	0	0	0	0	6415.58	10	0.754116	10.0013	57.4178	57.4178	0	15.9494	11	0.0115633	0.000000000000000E+000	7.58039e+08	0.000000000000000E+000	0.000000000000000E+000	15.9494	15.9494	0.0000000E+000	0.000000000000000E+000	0.00754214
1	1	0	0	0	0	0	6579.58	10	0.755545	10.002	59.0581	59.0581	0	16.405	11	0.0119073	0.000000000000000E+000	7.65249e+08	0.000000000000000E+000	0.000000000000000E+000	16.405	16.405	0.0000000E+000	0.000000000000000E+000	0.00755697
1	1	0	0	0	0	0	6743.58	10	0.756747	10.0007	60.6983	60.6983	0	16.8606	11	0.0122518	0.000000000000000E+000	7.74445e+08	0.000000000000000E+000	0.000000000000000E+000	16.8606	16.8606	0.0000000E+000	0.000000000000000E+000	0.00756798
1	1	0	0	0	0	0	6907.58	10	0.758191	10.0009	62.3385	62.3385	0	17.3163	11	0.012597	0.000000000000000E+000	7.80987e+08	0.000000000000000E+000	0.000000000000000E+000	17.3163	17.3163	0.0000000E+000	0.000000000000000E+000	0.00758261
1	1	0	0	0	0	0	7071.58	10	0.75934	10.0012	63.9788	63.9788	0	17.7719	11	0.0129427	0.000000000000000E+000	7.90162e+08	0.000000000000000E+000	0.000000000000000E+000	17.7719	17.7719	0.0000000E+000	0.000000000000000E+000	0.00759429
1	1	0	0	0	0	0	7235.58	10	0.760492	10.0015	65.619	65.619	0	18.2275	11	0.0132889	0.000000000000000E+000	7.9905e+08	0.000000000000000E+000	0.000000000000000E+000	18.2275	18.2275	0.0000000E+000	0.000000000000000E+000	0.00760606
1	1	0	0	0	0	0	7399.58	10	0.761554	10.0012	67.2592	67.2592	0	18.6831	11	0.0136357	0.000000000000000E+000	8.08569e+08	0.000000000000000E+000	0.000000000000000E+000	18.6831	18.6831	0.0000000E+000	0.000000000000000E+000	0.00761643
1	1	0	0	0	0	0	7563.58	10	0.762885	10.0019	68.8995	68.8995	0	19.1387	11	0.013983	0.000000000000000E+000	8.15236e+08	0.000000000000000E+000	0.000000000000000E+000	19.1387	19.1387	0.0000000E+000	0.000000000000000E+000	0.00763028
1	1	0	0	0	0	0	7727.58	10	0.763983	10.0022	70.5397	70.5397	0	19.5944	11	0.0143308	0.000000000000000E+000	8.23941e+08	0.000000000000000E+000	0.000000000000000E+000	19.5944	19.5944	0.0000000E+000	0.000000000000000E+000	0.00764151
1	1	0	0	0	0	0	7874.63	10	0.765018	10.0025	72.0104	72.0104	0	20.0029	11	0.0146432	0.000000000000000E+000	8.31078e+08	0.000000000000000E+000	0.000000000000000E+000	20.0029	20.0029	0.0000000E+000	0.000000000000000E+000	0.0076521