File: Data_1/2022_01_26 IrOx 1mg  ref309 elect1 set1_01_CV_C02.mpt
EC-Lab ASCII FILE
Nb header lines : 57

Cyclic Voltammetry

Run on channel : 2 (SN 12477)
User :
CE vs. WE compliance from -10 V to 10 V
Electrode connection : standard
Potential control : Ewe
Ewe ctrl range : min = -2.50 V, max = 2.50 V
Safety Limits :
	Do not start on E overload
Acquisition started on : 01/26/2023 11:20:17.212
Loaded Setting File :  C:\Users\grupogalan\Documents\EC-Lab\Data\Scott\_cyclic_pause_tafel.mps
Saved on :
	File : 2022_01_26 IrOx 1mg  ref309 elect1 set1_01_CV_C02.mpr
	Directory : C:\Users\grupogalan\Documents\EC-Lab\Data\Scott\
	Host : 169.254.104.159
Device : VSP (SN 1176)
Address : USB
EC-Lab for windows v11.46 (software)
Internet server v11.40 (firmware)
Command interpretor v11.40 (firmware)
Electrode material :
Initial state :
Electrolyte :
Comments :
Electrode surface area : 0.000 cm²
Characteristic mass : 0.001 g
Equivalent Weight : 0.000 g/eq.
Density : 0.000 g/cm3
Volume (V) : 0.001 cm³
Cycle Definition : Charge/Discharge alternance
Ei (V)              0.000
vs.                 Eoc
dE/dt               10.000
dE/dt unit          mV/s
E1 (V)              1.000
vs.                 Ref
Step percent        50
N                   10
E range min (V)     -2.500
E range max (V)     2.500
I Range             Auto
I Range min         Unset
I Range max         Unset
I Range init        Unset
Bandwidth           5
E2 (V)              0.000
vs.                 Ref
nc cycles           2
Reverse Scan        1
Ef (V)              0.000
vs.                 Eoc

mode	ox/red	error	control changes	counter inc.	time/s	control/V	Ewe/V	<I>/mA	cycle number	(Q-Qo)/C	I Range	P/W
2	1	0	1	0	0.000000000000000E+000	-0.0501425	-0.053464	0.149787	1	0.0000000E+000	12	-8.00823e-06
2	1	0	0	0	4.286	-0.00728243	-0.00730365	0.14786	1	0.000629239	11	-1.07992e-06
2	1	0	1	0	8.587	0.0357277	0.0370281	0.164428	1	0.00136267	11	6.08845e-06
2	1	0	0	0	12.888	0.0787378	0.0778202	0.174951	1	0.00214555	11	1.36147e-05
2	1	0	1	0	17.189	0.121748	0.121316	0.17986	1	0.00295605	11	2.18199e-05
2	1	0	0	0	21.49	0.164758	0.164684	0.178714	1	0.00377627	11	2.94313e-05
2	1	0	1	0	25.791	0.207768	0.208123	0.175728	1	0.00459463	11	3.65731e-05
2	1	0	0	0	30.092	0.250778	0.250892	0.175615	1	0.00541209	11	4.40603e-05
2	1	0	1	0	34.393	0.293788	0.293761	0.180538	1	0.00623778	11	5.30349e-05
2	1	0	0	0	38.694	0.336798	0.335143	0.188598	1	0.00708941	11	6.32075e-05
2	1	0	1	0	42.995	0.379808	0.378941	0.200336	1	0.00798243	11	7.59155e-05
2	1	0	0	0	47.296	0.422818	0.421443	0.225064	1	0.008951	11	9.48514e-05
2	1	0	1	0	51.597	0.465829	0.465543	0.260465	1	0.010043	11	0.000121258
2	1	0	0	0	55.898	0.508839	0.508955	0.30889	1	0.0113094	11	0.000157211
2	1	0	1	0	60.199	0.551849	0.550563	0.417558	1	0.0128748	11	0.000229892
2	1	0	0	0	64.5	0.594859	0.594238	1.03609	1	0.0156726	11	0.000615687
2	1	0	1	0	68.801	0.637869	0.638314	3.62079	1	0.0247785	11	0.0023112
2	1	0	0	0	73.102	0.680879	0.681596	9.19438	1	0.0513195	11	0.00626685
2	1	0	1	0	77.4331	0.72419	0.724952	17.5234	1	0.108449	10	0.0127037
2	1	0	1	0	81.7341	0.767199	0.767376	27.3309	1	0.204332	10	0.0209731
2	1	0	0	0	86.0352	0.810209	0.810614	39.248	1	0.34699	10	0.031815
2	1	0	1	0	90.3362	0.853219	0.852404	52.479	1	0.543899	10	0.0447333
2	1	0	0	0	94.6372	0.89623	0.894379	67.5413	1	0.801348	10	0.0604076
2	1	0	1	0	98.9382	0.93924	0.937515	84.16	1	1.12754	10	0.0789012
2	1	0	0	0	103.239	0.98225	0.981922	101.416	1	1.52687	10	0.099583
2	1	0	1	0	107.371	0.976448	0.975931	97.1297	1	1.95601	10	0.0947919
2	1	0	0	0	111.672	0.933438	0.932678	77.7005	1	2.33091	10	0.0724696
2	1	0	1	0	115.973	0.890428	0.891504	60.1075	1	2.62634	10	0.0535861
2	1	0	0	0	120.274	0.847418	0.846361	44.4345	1	2.8503	10	0.0376077
2	1	0	1	0	124.575	0.804408	0.803449	30.9028	1	3.01143	10	0.0248288
2	1	0	0	0	128.876	0.761398	0.761703	19.6251	1	3.11914	10	0.0149485
2	1	0	1	0	133.177	0.718388	0.719272	10.8508	1	3.1837	10	0.00780469
2	1	0	0	0	137.478	0.675378	0.67517	4.74701	1	3.2162	10	0.00320504
2	1	0	1	0	141.809	0.632068	0.63226	1.3499	1	3.22839	11	0.000853487
2	1	0	0	0	146.11	0.589057	0.588202	0.151697	1	3.23098	11	8.92286e-05
2	1	0	1	0	150.411	0.546046	0.546906	-0.0525829	1	3.231	11	-2.87579e-05
2	0	0	1	0	154.712	0.503038	0.502961	-0.069255	1	3.23067	11	-3.48325e-05
2	1	0	0	0	159.013	0.460027	0.459527	-0.0823045	1	3.23028	11	-3.78211e-05
2	0	0	1	0	163.314	0.417017	0.416591	-0.0914626	1	3.22986	11	-3.81025e-05
2	0	0	0	0	167.615	0.374007	0.373911	-0.102369	1	3.22939	11	-3.8277e-05
2	0	0	1	0	171.916	0.330997	0.330898	-0.110545	1	3.22889	11	-3.65789e-05
2	0	0	0	0	176.217	0.287987	0.287512	-0.114781	1	3.22835	11	-3.3001e-05
2	1	0	1	0	180.518	0.244977	0.244112	-0.126344	1	3.22776	11	-3.08421e-05
2	1	0	0	0	184.819	0.201967	0.202907	-0.139505	1	3.22714	11	-2.83064e-05
2	1	0	1	0	189.12	0.158957	0.158586	-0.150267	1	3.22646	11	-2.38302e-05
2	1	0	0	0	193.421	0.115946	0.115211	-0.159718	1	3.22574	11	-1.84012e-05
2	0	0	1	0	197.722	0.0729364	0.0712863	-0.165947	1	3.22498	11	-1.18298e-05
2	0	0	0	0	202.023	0.0299263	0.0296467	-0.180295	1	3.22418	11	-5.34515e-06
2	1	0	0	1	206.174	0.011522	0.0102551	0.0544039	2	3.22365	11	5.57916e-07
2	0	0	1	1	210.475	0.0545321	0.0541837	0.0992787	2	3.22406	11	5.37929e-06
2	0	0	0	1	214.776	0.0975422	0.0989482	0.109766	2	3.22457	11	1.08611e-05
2	0	0	1	1	219.077	0.140552	0.140179	0.114728	2	3.22511	11	1.60826e-05
2	0	0	0	1	223.378	0.183562	0.182881	0.116228	2	3.22566	11	2.12559e-05
2	1	0	1	1	227.679	0.226572	0.226362	0.114386	2	3.22621	11	2.58926e-05
2	1	0	0	1	231.98	0.269583	0.269758	0.115974	2	3.22676	11	3.12849e-05
2	1	0	1	1	236.281	0.312593	0.313061	0.117421	2	3.22731	11	3.67598e-05
2	1	0	0	1	240.582	0.355603	0.35533	0.11765	2	3.22786	11	4.18044e-05
2	1	0	1	1	244.883	0.398613	0.39768	0.118531	2	3.22841	11	4.71375e-05
2	0	0	0	1	249.184	0.441623	0.441966	0.120804	2	3.22898	11	5.33911e-05
2	0	0	1	1	253.485	0.484633	0.483532	0.128678	2	3.22957	11	6.22202e-05
2	0	0	0	1	257.786	0.527643	0.527471	0.156002	2	3.23021	11	8.22863e-05
2	1	0	1	1	262.087	0.570653	0.569345	0.29565	2	3.23114	11	0.000168326
2	1	0	1	1	266.388	0.613664	0.613243	1.17613	2	3.23386	11	0.000721254
2	1	0	0	1	270.69	0.656673	0.657623	4.23029	2	3.24455	11	0.00278194
2	1	0	1	1	274.991	0.699683	0.699477	10.1388	2	3.27447	11	0.00709184
2	1	0	0	1	279.322	0.742994	0.741859	18.7314	2	3.33623	10	0.0138961
2	1	0	1	1	283.623	0.786004	0.784027	29.6059	2	3.43943	10	0.0232119
2	1	0	0	1	287.924	0.829014	0.829564	42.4293	2	3.59369	10	0.0351978
2	1	0	1	1	292.225	0.872024	0.873188	56.9289	2	3.8069	10	0.0497096
2	1	0	0	1	296.526	0.915034	0.91508	72.7288	2	4.08515	10	0.0665527
2	1	0	1	1	300.827	0.958044	0.957356	89.7022	2	4.43406	10	0.0858769
2	1	0	0	1	305.023	1	1.00226	107	2	4.84668	10	0.107241
2	1	0	1	1	309.279	0.957444	0.957198	87.2241	2	5.2589	10	0.0834907
2	1	0	0	1	313.58	0.914434	0.914152	68.9112	2	5.59386	10	0.0629953
2	1	0	1	1	317.881	0.871424	0.872129	52.2901	2	5.85373	10	0.0456038
2	1	0	0	1	322.182	0.828414	0.829353	37.8481	2	6.04681	10	0.0313894
2	1	0	1	1	326.483	0.785403	0.784339	25.3312	2	6.18168	10	0.0198683
2	1	0	0	1	330.784	0.742393	0.741671	15.1972	2	6.26783	10	0.0112713
2	1	0	1	1	335.085	0.699383	0.699137	7.64682	2	6.31594	10	0.00534617
2	1	0	1	1	339.416	0.656074	0.656005	2.81845	2	6.33753	11	0.00184892
2	1	0	0	1	343.717	0.613063	0.612448	0.591258	2	6.34398	11	0.000362115
2	1	0	1	1	348.018	0.570053	0.568925	0.00386885	2	6.34484	11	2.20108e-06
2	1	0	0	1	352.319	0.527043	0.525782	-0.0704582	2	6.34459	11	-3.70456e-05
2	0	0	1	1	356.62	0.484033	0.484998	-0.076205	2	6.34423	11	-3.69593e-05
2	0	0	0	1	360.921	0.441023	0.441132	-0.0853787	2	6.34383	11	-3.76633e-05
2	0	0	1	1	365.222	0.398013	0.396307	-0.0932346	2	6.34339	11	-3.69496e-05
2	0	0	0	1	369.523	0.355003	0.352246	-0.102114	2	6.34292	11	-3.59692e-05
2	1	0	1	1	373.824	0.311993	0.31207	-0.109266	2	6.34241	11	-3.40987e-05
2	1	0	0	1	378.125	0.268982	0.268583	-0.117216	2	6.34187	11	-3.14822e-05
2	1	0	1	1	382.426	0.225972	0.225991	-0.128203	2	6.3413	11	-2.89727e-05
2	0	0	0	1	386.727	0.182962	0.182049	-0.135764	2	6.34067	11	-2.47157e-05
2	0	0	1	1	391.028	0.139952	0.13959	-0.145263	2	6.34001	11	-2.02772e-05
2	0	0	0	1	395.329	0.096942	0.0969032	-0.158853	2	6.33929	11	-1.53934e-05
2	0	0	1	1	399.63	0.0539319	0.0550089	-0.164123	2	6.33854	11	-9.02821e-06
2	1	0	0	1	403.931	0.0109218	0.00980747	-0.175732	2	6.33775	11	-1.72349e-06
2	1	0	0	0	408.083	0.0305264	0.0314976	0.076927	3	6.33775	11	2.42302e-06
2	1	0	1	0	412.384	0.0735365	0.0738628	0.105296	3	6.3382	11	7.77747e-06
2	1	0	0	0	416.685	0.116547	0.115301	0.106486	3	6.3387	11	1.22779e-05
2	1	0	1	0	420.986	0.159557	0.158131	0.110696	3	6.33923	11	1.75044e-05
2	0	0	0	0	425.287	0.202567	0.202122	0.110599	3	6.33975	11	2.23544e-05
2	0	0	1	0	429.588	0.245577	0.246788	0.105605	3	6.34027	11	2.60621e-05
2	1	0	0	0	433.889	0.288587	0.287236	0.10857	3	6.34079	11	3.11853e-05
2	1	0	1	0	438.19	0.331597	0.331726	0.109332	3	6.3413	11	3.62684e-05
2	1	0	0	0	442.491	0.374607	0.374851	0.107631	3	6.34182	11	4.03455e-05
2	1	0	1	0	446.792	0.417617	0.417118	0.107494	3	6.34234	11	4.48377e-05
2	1	0	1	0	451.093	0.460627	0.460921	0.1142	3	6.34287	11	5.26374e-05
2	0	0	0	0	455.394	0.503637	0.502255	0.12551	3	6.34342	11	6.30381e-05
2	1	0	1	0	459.695	0.546648	0.545007	0.162354	3	6.34407	11	8.8484e-05
2	1	0	0	0	463.996	0.589658	0.588637	0.455971	3	6.34527	11	0.000268401
2	1	0	1	0	468.297	0.632668	0.633694	1.95112	3	6.3498	11	0.00123641
2	1	0	0	0	472.598	0.675678	0.676123	5.99302	3	6.3659	11	0.00405202
2	1	0	1	0	476.929	0.718988	0.718827	13.0142	3	6.40614	10	0.00935498
2	1	0	0	0	481.23	0.761998	0.760905	22.4499	3	6.48161	10	0.0170823
2	1	0	1	0	485.531	0.805008	0.805484	34.1282	3	6.60259	10	0.0274897
2	1	0	0	0	489.832	0.848018	0.848449	47.816	3	6.77839	10	0.0405695
2	1	0	1	0	494.133	0.891028	0.890028	63.0737	3	7.01625	10	0.0561374
2	1	0	0	0	498.434	0.934038	0.933582	79.4764	3	7.32251	10	0.0741977
2	1	0	1	0	502.735	0.977048	0.976065	97.4676	3	7.70223	10	0.0951347
2	1	0	0	0	506.886	0.98145	0.981695	98.1981	3	8.12782	10	0.0964005
2	1	0	1	0	511.187	0.938439	0.939341	79.0793	3	8.50837	10	0.0742825
2	1	0	0	0	515.488	0.895429	0.894755	61.4564	3	8.80974	10	0.0549884
2	1	0	1	0	519.789	0.852419	0.851501	45.7084	3	9.03924	10	0.0389207
2	1	0	1	0	524.09	0.80941	0.808117	32.016	3	9.20556	10	0.0258726
2	1	0	0	0	528.392	0.766399	0.767715	20.4766	3	9.31752	10	0.0157201
2	1	0	1	0	532.693	0.723389	0.723942	11.4289	3	9.38514	10	0.00827384
2	1	0	0	0	536.994	0.680379	0.680089	5.12085	3	9.41966	10	0.00348263
2	1	0	1	0	541.325	0.637069	0.636731	1.51414	3	9.43297	11	0.0009641
2	1	0	0	0	545.626	0.594059	0.594258	0.191395	3	9.43598	11	0.000113738
2	0	0	1	0	549.927	0.551049	0.551632	-0.0454047	3	9.43607	11	-2.50467e-05
2	1	0	0	0	554.228	0.508038	0.50697	-0.0685385	3	9.43574	11	-3.47469e-05
2	1	0	1	0	558.529	0.465028	0.463107	-0.0756493	3	9.43537	11	-3.50337e-05
2	1	0	0	0	562.83	0.422018	0.422246	-0.0892189	3	9.43495	11	-3.76723e-05
2	1	0	1	0	567.131	0.379008	0.379999	-0.0963557	3	9.43451	11	-3.66151e-05
2	0	0	0	0	571.432	0.335998	0.335402	-0.100965	3	9.43403	11	-3.38639e-05
2	0	0	1	0	575.733	0.292988	0.291968	-0.108457	3	9.43353	11	-3.16658e-05
2	0	0	0	0	580.034	0.249978	0.24896	-0.117661	3	9.43299	11	-2.9293e-05
2	0	0	1	0	584.335	0.206968	0.206428	-0.129729	3	9.4324	11	-2.67797e-05
2	0	0	0	0	588.636	0.163958	0.164541	-0.137969	3	9.43178	11	-2.27017e-05
2	1	0	1	0	592.937	0.120948	0.118959	-0.145774	3	9.43111	11	-1.73411e-05
2	1	0	0	0	597.238	0.0779376	0.0772167	-0.159196	3	9.4304	11	-1.22926e-05
2	0	0	1	0	601.539	0.0349275	0.0344689	-0.168825	3	9.42965	11	-5.81922e-06
2	0	0	1	1	605.69	-0.00658226	-0.00547925	-0.171846	3	9.42889	11	9.41585e-07
2	1	0	0	1	609.991	-0.0495924	-0.0507486	-0.1852	3	9.42806	11	9.39864e-06
2	0	0	1	1	610.087	-0.0506426	-0.0510392	-0.0256404	3	9.42804	11	1.30867e-06