File: Data_1/2022_01_25 Co50Ni25Fe25Nx elec3 set2_C05_01_CV_C02.mpt
EC-Lab ASCII FILE
Nb header lines : 57

Cyclic Voltammetry

Run on channel : 2 (SN 12477)
User :
CE vs. WE compliance from -10 V to 10 V
Electrode connection : standard
Potential control : Ewe
Ewe ctrl range : min = -2.50 V, max = 2.50 V
Safety Limits :
	Do not start on E overload
Acquisition started on : 01/25/2023 13:03:00.629
Loaded Setting File :  C:\Users\grupogalan\Documents\EC-Lab\Data\Scott\2022_01_24 Co50Ni25Fe25Nx elec1 set1.1.mps
Saved on :
	File : 2022_01_25 Co50Ni25Fe25Nx elec3 set2_C05_01_CV_C02.mpr
	Directory : C:\Users\grupogalan\Documents\EC-Lab\Data\Scott\
	Host : 169.254.104.159
Device : VSP (SN 1176)
Address : USB
EC-Lab for windows v11.46 (software)
Internet server v11.40 (firmware)
Command interpretor v11.40 (firmware)
Electrode material :
Initial state :
Electrolyte :
Comments :
Electrode surface area : 0.000 cm²
Characteristic mass : 0.001 g
Equivalent Weight : 0.000 g/eq.
Density : 0.000 g/cm3
Volume (V) : 0.001 cm³
Cycle Definition : Charge/Discharge alternance
Ei (V)              0.000
vs.                 Eoc
dE/dt               10.000
dE/dt unit          mV/s
E1 (V)              1.000
vs.                 Ref
Step percent        50
N                   10
E range min (V)     -2.500
E range max (V)     2.500
I Range             Auto
I Range min         Unset
I Range max         Unset
I Range init        Unset
Bandwidth           5
E2 (V)              0.000
vs.                 Ref
nc cycles           2
Reverse Scan        1
Ef (V)              0.000
vs.                 Eoc

mode	ox/red	error	control changes	counter inc.	time/s	control/V	Ewe/V	<I>/mA	cycle number	(Q-Qo)/C	I Range	P/W
2	1	0	0	0	0.000000000000000E+000	-0.152166	-0.152172	0.0226807	1	0.0000000E+000	13	-3.45136e-06
2	0	0	1	0	4.456	-0.107606	-0.109568	0.00309452	1	8.76038e-06	13	-3.39062e-07
2	0	0	0	0	8.957	-0.0625954	-0.0625372	0.00439101	1	2.64512e-05	13	-2.74601e-07
2	0	0	1	0	13.458	-0.0175848	-0.0170589	0.00480817	1	4.76206e-05	13	-8.20218e-08
2	0	0	1	0	17.9592	0.0274257	0.0269154	0.00646948	1	7.12894e-05	13	1.74129e-07
2	0	0	0	0	22.4602	0.0724363	0.071962	0.00727535	1	9.83955e-05	13	5.23549e-07
2	1	0	1	0	26.9612	0.117447	0.117223	0.0155193	1	0.000141285	13	1.81922e-06
2	1	0	1	0	31.4623	0.162458	0.162759	0.0351528	1	0.000250722	13	5.72143e-06
2	1	0	0	0	35.9634	0.207468	0.206516	0.0461635	1	0.000431999	13	9.53352e-06
2	1	0	1	0	40.4944	0.252779	0.251856	0.0596782	1	0.000670266	12	1.50303e-05
2	1	0	0	0	44.9954	0.297789	0.297827	0.0856427	1	0.000996813	12	2.55067e-05
2	1	0	0	0	49.4966	0.3428	0.341404	0.137829	1	0.00149704	12	4.70553e-05
2	1	0	1	0	53.9976	0.38781	0.387506	0.243188	1	0.0023406	12	9.42366e-05
2	1	0	0	0	58.4986	0.432821	0.432376	0.421803	1	0.00382399	12	0.000182377
2	1	0	1	0	62.9997	0.477831	0.477735	0.66912	1	0.0062824	12	0.000319662
2	1	0	1	0	67.5008	0.522842	0.52069	0.951021	1	0.0099456	12	0.000495187
2	1	0	0	0	72.0318	0.568153	0.566572	1.2762	1	0.0150009	11	0.000723057
2	1	0	1	0	76.5328	0.613163	0.613011	1.78498	1	0.0217261	11	0.00109422
2	1	0	1	0	81.034	0.658174	0.657133	4.02396	1	0.0335434	11	0.00264428
2	1	0	0	0	85.535	0.703184	0.702382	10.7231	1	0.0650847	11	0.00753173
2	1	0	1	0	90.066	0.748495	0.748462	21.0174	1	0.136102	10	0.0157308
2	1	0	1	0	94.5672	0.793505	0.793194	33.43	1	0.258116	10	0.0265165
2	1	0	0	0	99.0682	0.838516	0.837351	47.5065	1	0.439769	10	0.0397796
2	1	0	1	0	103.569	0.883526	0.88228	63.3896	1	0.688495	10	0.0559273
2	1	0	1	0	108.07	0.928538	0.927866	80.5529	1	1.0115	10	0.0747423
2	1	0	0	0	112.571	0.973548	0.972618	98.7256	1	1.41479	10	0.0960224
2	1	0	1	0	116.973	0.98245	0.982281	101.422	1	1.87508	10	0.0996253
2	1	0	1	0	121.474	0.937439	0.936999	82.1512	1	2.28799	10	0.0769756
2	1	0	0	0	125.975	0.892429	0.891664	64.7875	1	2.61779	10	0.0577687
2	1	0	1	0	130.476	0.847418	0.846806	49.2554	1	2.87393	10	0.0417098
2	1	0	0	0	134.977	0.802408	0.80103	35.3182	1	3.06344	10	0.0282909
2	1	0	0	0	139.478	0.757397	0.756529	23.4097	1	3.19474	10	0.0177101
2	1	0	1	0	143.979	0.712386	0.713357	13.6225	1	3.27718	10	0.00971773
2	1	0	0	0	148.48	0.667376	0.666858	6.31655	1	3.321	10	0.00421225
2	1	0	0	0	153.011	0.622065	0.620271	1.90025	1	3.33842	11	0.00117867
2	1	0	1	0	157.542	0.576755	0.575714	0.240669	1	3.34244	12	0.000138556
2	0	0	0	0	162.043	0.531744	0.531335	-0.109277	1	3.34248	12	-5.80628e-05
2	0	0	1	0	166.544	0.486732	0.486025	-0.187732	1	3.34176	12	-9.12423e-05
2	0	0	1	0	171.046	0.441723	0.440753	-0.200477	1	3.34087	12	-8.83605e-05
2	0	0	0	0	175.547	0.396712	0.39705	-0.202173	1	3.33995	12	-8.02726e-05
2	0	0	1	0	180.048	0.351702	0.351317	-0.190228	1	3.33906	12	-6.68305e-05
2	0	0	1	0	184.549	0.306691	0.306719	-0.174716	1	3.33823	12	-5.35888e-05
2	0	0	0	0	189.05	0.261681	0.261773	-0.147164	1	3.3375	12	-3.85236e-05
2	0	0	1	0	193.551	0.21667	0.216085	-0.113608	1	3.33691	12	-2.4549e-05
2	0	0	1	0	198.052	0.171659	0.170605	-0.0829711	1	3.33646	12	-1.41553e-05
2	0	0	0	0	202.553	0.126649	0.125097	-0.062618	1	3.33613	12	-7.83335e-06
2	0	0	1	0	207.054	0.0816384	0.08063	-0.0496546	1	3.33587	12	-4.00365e-06
2	0	0	0	0	211.555	0.0366279	0.0355017	-0.0419869	1	3.33567	12	-1.49061e-06
2	0	0	0	1	215.877	0.00652081	0.00628278	-0.0335865	2	3.3355	12	-2.11017e-07
2	0	0	1	1	220.378	0.0515314	0.0520591	-0.0229412	2	3.33537	12	-1.1943e-06
2	0	0	1	1	224.879	0.0965419	0.0955423	-0.015528	2	3.33529	12	-1.48358e-06
2	0	0	0	1	229.38	0.141552	0.141056	-0.00818362	2	3.33523	12	-1.15435e-06
2	1	0	1	1	233.881	0.186563	0.185675	-0.000962062	2	3.33521	12	-1.78631e-07
2	1	0	1	1	238.382	0.231574	0.229331	0.0115043	2	3.33523	12	2.63829e-06
2	1	0	0	1	242.883	0.276584	0.277274	0.0381739	2	3.33534	12	1.05846e-05
2	1	0	1	1	247.384	0.321595	0.321711	0.0815969	2	3.33561	12	2.62506e-05
2	1	0	0	1	251.885	0.366605	0.367486	0.144329	2	3.33612	12	5.3039e-05
2	1	0	0	1	256.386	0.411616	0.410675	0.228487	2	3.33696	12	9.38341e-05
2	1	0	1	1	260.887	0.456626	0.45609	0.28862	2	3.33813	12	0.000131637
2	1	0	0	1	265.388	0.501637	0.499939	0.380434	2	3.33964	12	0.000190194
2	1	0	0	1	269.889	0.546648	0.546759	0.479406	2	3.34159	12	0.00026212
2	1	0	1	1	274.39	0.591658	0.591024	0.726946	2	3.3442	12	0.000429643
2	1	0	0	1	278.921	0.636969	0.635964	2.33754	2	3.35016	11	0.00148659
2	1	0	1	1	283.422	0.681979	0.681949	7.51885	2	3.37086	11	0.00512747
2	1	0	1	1	287.954	0.72729	0.726048	16.3099	2	3.42372	10	0.0118418
2	1	0	0	1	292.455	0.7723	0.770244	28.0742	2	3.5228	10	0.021624
2	1	0	1	1	296.956	0.817311	0.818011	41.9216	2	3.67968	10	0.0342923
2	1	0	1	1	301.457	0.862321	0.862613	57.7798	2	3.90353	10	0.0498416
2	1	0	0	1	305.958	0.907332	0.907567	74.6253	2	4.20128	10	0.0677275
2	1	0	1	1	310.459	0.952343	0.952594	92.7058	2	4.57738	10	0.0883109
2	1	0	1	1	314.99	0.997653	0.997286	111.114	2	5.03897	9	0.110812
2	1	0	0	1	319.381	0.958444	0.958403	93.1623	2	5.49097	9	0.089287
2	1	0	1	1	323.882	0.913434	0.913344	74.8342	2	5.86821	9	0.0683494
2	1	0	1	1	328.384	0.868423	0.867254	58.2207	2	6.16748	9	0.0504922
2	1	0	0	1	332.915	0.823112	0.82294	42.8762	2	6.39586	10	0.0352845
2	1	0	1	1	337.416	0.778102	0.778324	29.5002	2	6.558	10	0.0229607
2	1	0	1	1	341.917	0.733091	0.73265	18.3534	2	6.66484	10	0.0134466
2	1	0	0	1	346.418	0.688081	0.688962	9.58701	2	6.7266	10	0.00660509
2	1	0	1	1	350.949	0.64277	0.642341	3.66344	2	6.75539	11	0.00235318
2	1	0	0	1	355.45	0.597759	0.59828	0.799811	2	6.76432	11	0.000478511
2	1	0	0	1	359.981	0.552449	0.551888	-0.0359976	2	6.76551	12	-1.98666e-05
2	0	0	1	1	364.482	0.507438	0.507355	-0.184744	2	6.76488	12	-9.37307e-05
2	0	0	0	1	368.983	0.462428	0.462497	-0.215247	2	6.76392	12	-9.95512e-05
2	0	0	0	1	373.484	0.417417	0.416167	-0.220519	2	6.7629	12	-9.17727e-05
2	0	0	1	1	377.985	0.372407	0.370417	-0.221097	2	6.76189	12	-8.18979e-05
2	0	0	0	1	382.486	0.327396	0.327483	-0.205103	2	6.76092	12	-6.71677e-05
2	0	0	1	1	386.987	0.282385	0.282509	-0.181528	2	6.76004	12	-5.12835e-05
2	0	0	1	1	391.488	0.237375	0.236827	-0.146763	2	6.75929	12	-3.47573e-05
2	0	0	0	1	395.989	0.192364	0.192966	-0.110677	2	6.75871	12	-2.13569e-05
2	0	0	1	1	400.49	0.147354	0.146375	-0.081065	2	6.75828	12	-1.18659e-05
2	0	0	1	1	404.992	0.102343	0.102511	-0.0623398	2	6.75796	12	-6.39052e-06
2	0	0	0	1	409.493	0.0573327	0.0574655	-0.0508073	2	6.7577	12	-2.91967e-06
2	0	0	1	1	413.994	0.0123222	0.0122057	-0.0434315	2	6.75749	12	-5.30112e-07
2	0	0	1	0	418.385	0.0315267	0.0317373	-0.0307209	3	6.75733	12	-9.74998e-07
2	0	0	0	0	422.886	0.0765372	0.0766269	-0.0238559	3	6.7572	12	-1.82801e-06
2	0	0	0	0	427.387	0.121548	0.120562	-0.0182384	3	6.75711	12	-2.19886e-06
2	1	0	1	0	431.888	0.166558	0.167793	-0.0114994	3	6.75705	12	-1.92951e-06
2	1	0	0	0	436.389	0.211569	0.211125	-0.00155237	3	6.75703	12	-3.27744e-07
2	1	0	1	0	440.89	0.256579	0.256012	0.0178264	3	6.75707	12	4.56379e-06
2	1	0	1	0	445.392	0.30159	0.302039	0.0554515	3	6.75723	12	1.67485e-05
2	1	0	0	0	449.893	0.346601	0.34758	0.107626	3	6.7576	12	3.74088e-05
2	1	0	1	0	454.394	0.391611	0.391833	0.185095	3	6.75826	12	7.25266e-05
2	1	0	1	0	458.895	0.436622	0.436111	0.25329	3	6.75927	12	0.000110462
2	1	0	0	0	463.396	0.481632	0.482386	0.324534	3	6.76056	12	0.000156551
2	1	0	1	0	467.897	0.526643	0.526259	0.40709	3	6.76221	12	0.000214235
2	1	0	1	0	472.398	0.571653	0.571788	0.532769	3	6.76429	12	0.000304631
2	1	0	0	0	476.929	0.616964	0.617454	1.24469	3	6.76782	11	0.000768541
2	1	0	1	0	481.43	0.661975	0.660988	4.63896	3	6.77971	11	0.0030663
2	1	0	1	0	485.961	0.707286	0.706614	11.7748	3	6.8156	10	0.00832026
2	1	0	0	0	490.462	0.752296	0.751537	22.0635	3	6.89072	10	0.0165815
2	1	0	1	0	494.963	0.797306	0.796767	34.7502	3	7.01778	10	0.0276878
2	1	0	0	0	499.464	0.842317	0.84357	49.5308	3	7.2067	10	0.0417827
2	1	0	0	0	503.965	0.887327	0.889064	66.0019	3	7.46668	10	0.0586799
2	1	0	1	0	508.466	0.932338	0.933564	83.3491	3	7.80306	10	0.0778117
2	1	0	0	0	512.967	0.977349	0.976077	101.911	3	8.22025	10	0.0994727
2	1	0	0	0	517.389	0.978449	0.978781	101.484	3	8.69085	9	0.0993308
2	1	0	1	0	521.89	0.933438	0.934624	82.5635	3	9.10425	9	0.0771659
2	1	0	0	0	526.391	0.888428	0.888635	65.1781	3	9.43636	9	0.0579196
2	1	0	0	0	530.892	0.843417	0.844441	49.1784	3	9.69291	9	0.0415283
2	1	0	1	0	535.423	0.798106	0.79994	34.7816	3	9.8825	10	0.0278232
2	1	0	0	0	539.924	0.753096	0.753281	22.6032	3	10.0108	10	0.0170266
2	1	0	1	0	544.425	0.708085	0.707647	12.8138	3	10.0895	10	0.00906763
2	1	0	1	0	548.926	0.663075	0.662185	5.75805	3	10.1302	10	0.00381289
2	1	0	0	0	553.457	0.617764	0.617084	1.67167	3	10.1458	11	0.00103156
2	1	0	1	0	557.988	0.572454	0.572875	0.160748	3	10.1493	12	9.20886e-05
2	0	0	1	0	562.49	0.527443	0.529614	-0.156755	3	10.1491	12	-8.30199e-05
2	0	0	0	0	566.991	0.482432	0.482752	-0.218096	3	10.1482	12	-0.000105286
2	0	0	1	0	571.492	0.437422	0.436827	-0.233175	3	10.1471	12	-0.000101857
2	0	0	1	0	575.993	0.392412	0.392367	-0.233501	3	10.1461	12	-9.16182e-05
2	0	0	0	0	580.494	0.347401	0.347847	-0.219931	3	10.145	12	-7.65024e-05
2	0	0	1	0	584.995	0.30239	0.300514	-0.201358	3	10.1441	12	-6.05109e-05
2	0	0	0	0	589.496	0.25738	0.257032	-0.169265	3	10.1432	12	-4.35065e-05
2	0	0	0	0	593.997	0.212369	0.212068	-0.130828	3	10.1425	12	-2.77443e-05
2	0	0	1	0	598.498	0.167359	0.166223	-0.0969452	3	10.142	12	-1.61145e-05
2	0	0	0	0	602.999	0.122348	0.12123	-0.0730535	3	10.1416	12	-8.85629e-06
2	0	0	1	0	607.5	0.0773383	0.0777979	-0.0580545	3	10.1413	12	-4.51652e-06
2	0	0	1	0	612.001	0.0323269	0.0325933	-0.0490442	3	10.141	12	-1.59851e-06
2	0	0	1	1	616.393	-0.0115834	-0.0111975	-0.0428899	3	10.1408	12	4.80258e-07
2	0	0	0	1	620.894	-0.056594	-0.0569802	-0.0386998	3	10.1407	12	2.20513e-06
2	0	0	0	1	625.395	-0.101605	-0.102989	-0.0358376	3	10.1405	12	3.69087e-06
2	0	0	1	1	629.896	-0.146615	-0.146675	-0.032781	3	10.1403	12	4.80814e-06
2	0	0	1	1	630.477	-0.152467	-0.152287	-0.0240654	3	10.1403	12	3.66484e-06