File: Data_1/2022_01_24 Co50Ni25Fe25Nx elec1 set1.1_03_CP_C02.mpt
EC-Lab ASCII FILE
Nb header lines : 52

Chronopotentiometry

Run on channel : 2 (SN 12477)
User :
CE vs. WE compliance from -10 V to 10 V
Electrode connection : standard
Potential control : Ewe
Ewe ctrl range : min = -2.50 V, max = 2.50 V
Safety Limits :
	Do not start on E overload
Acquisition started on : 01/24/2023 12:28:09.319
Loaded Setting File :  C:\Users\grupogalan\Documents\EC-Lab\Data\Lole Jurado\2023_01_23_CoNiFeNx_400ºC_24h_electrode1__set2_20012023_1.mps
Saved on :
	File : 2022_01_24 Co50Ni25Fe25Nx elec1 set1.1_03_CP_C02.mpr
	Directory : C:\Users\grupogalan\Documents\EC-Lab\Data\Scott\
	Host : 169.254.104.159
Device : VSP (SN 1176)
Address : USB
EC-Lab for windows v11.46 (software)
Internet server v11.40 (firmware)
Command interpretor v11.40 (firmware)
Electrode material :
Initial state :
Electrolyte :
Comments :
Electrode surface area : 0.000 cm²
Characteristic mass : 0.001 g
Equivalent Weight : 0.000 g/eq.
Density : 0.000 g/cm3
Volume (V) : 0.001 cm³
Cycle Definition : Charge/Discharge alternance
Is                  10.000
unit Is             mA
vs.                 <None>
ts (h:m:s)          2:00:0.0000
EM (V)              pass
dQM                 20.000
unit dQM            mA.h
record              <Ewe>
dEs (mV)            0.00
dts (s)             1.0000
E range min (V)     -2.500
E range max (V)     2.500
I Range             10 mA
Bandwidth           5
goto Ns'            0
nc cycles           0

mode	ox/red	error	control changes	Ns changes	counter inc.	Ns	time/s	control/mA	<Ewe>/V	I/mA	dQ/C	(Q-Qo)/C	half cycle	Q charge/discharge/mA.h	I Range	Energy charge/W.h	Energy discharge/W.h	Capacitance charge/µF	Capacitance discharge/µF	Q discharge/mA.h	Q charge/mA.h	Capacity/mA.h	Efficiency/%	cycle number	P/W
1	1	0	1	0	0	0	679.477	10	0.707655	10.0015	0.00947728	0.00947728	0	0.00263258	11	1.86296e-06	0.000000000000000E+000	0.000000000000000E+000	0.000000000000000E+000	0.000000000000000E+000	0.00263258	0.00263258	0.0000000E+000	0.000000000000000E+000	0.0070776
1	1	0	1	0	0	0	843.477	10	0.710102	10.0015	1.6497	1.6497	0	0.458251	11	0.00032602	0.000000000000000E+000	6.74089e+08	0.000000000000000E+000	0.000000000000000E+000	0.458251	0.458251	0.0000000E+000	0.000000000000000E+000	0.00710208
1	1	0	1	0	0	0	1007.48	10	0.710382	10.0012	3.28993	3.28993	0	0.913869	11	0.000649506	0.000000000000000E+000	1.20649e+09	0.000000000000000E+000	0.000000000000000E+000	0.913869	0.913869	0.0000000E+000	0.000000000000000E+000	0.0071047
1	1	0	1	0	0	0	1171.48	10	0.711949	10.0009	4.93015	4.93015	0	1.36949	11	0.000973413	0.000000000000000E+000	1.14814e+09	0.000000000000000E+000	0.000000000000000E+000	1.36949	1.36949	0.0000000E+000	0.000000000000000E+000	0.00712014
1	1	0	1	0	0	0	1335.48	10	0.713451	10.0021	6.57038	6.57038	0	1.82511	11	0.00129807	0.000000000000000E+000	1.13357e+09	0.000000000000000E+000	0.000000000000000E+000	1.82511	1.82511	0.0000000E+000	0.000000000000000E+000	0.00713598
1	1	0	1	0	0	0	1499.48	10	0.716042	10.0005	8.2106	8.2106	0	2.28072	11	0.00162377	0.000000000000000E+000	9.78985e+08	0.000000000000000E+000	0.000000000000000E+000	2.28072	2.28072	0.0000000E+000	0.000000000000000E+000	0.00716076
1	1	0	1	0	0	0	1663.48	10	0.718986	10.0012	9.85083	9.85083	0	2.73634	11	0.00195073	0.000000000000000E+000	8.69332e+08	0.000000000000000E+000	0.000000000000000E+000	2.73634	2.73634	0.0000000E+000	0.000000000000000E+000	0.00719075
1	1	0	1	0	0	0	1827.48	10	0.721737	10.0017	11.4911	11.4911	0	3.19196	11	0.00227901	0.000000000000000E+000	8.15992e+08	0.000000000000000E+000	0.000000000000000E+000	3.19196	3.19196	0.0000000E+000	0.000000000000000E+000	0.00721859
1	1	0	1	0	0	0	1991.48	10	0.725333	10.0015	13.1313	13.1313	0	3.64758	11	0.00260876	0.000000000000000E+000	7.42783e+08	0.000000000000000E+000	0.000000000000000E+000	3.64758	3.64758	0.0000000E+000	0.000000000000000E+000	0.00725442
1	1	0	1	0	0	0	2155.48	10	0.72849	10.0016	14.7715	14.7715	0	4.1032	11	0.00293999	0.000000000000000E+000	7.08966e+08	0.000000000000000E+000	0.000000000000000E+000	4.1032	4.1032	0.0000000E+000	0.000000000000000E+000	0.00728608
1	1	0	1	0	0	0	2319.48	10	0.73221	10.0019	16.4117	16.4117	0	4.55882	11	0.00327271	0.000000000000000E+000	6.68354e+08	0.000000000000000E+000	0.000000000000000E+000	4.55882	4.55882	0.0000000E+000	0.000000000000000E+000	0.00732348
1	1	0	1	0	0	0	2483.48	10	0.735159	10.0016	18.052	18.052	0	5.01443	11	0.00360692	0.000000000000000E+000	6.56327e+08	0.000000000000000E+000	0.000000000000000E+000	5.01443	5.01443	0.0000000E+000	0.000000000000000E+000	0.00735274
1	1	0	1	0	0	0	2647.48	10	0.737744	10.0018	19.6922	19.6922	0	5.47005	11	0.0039424	0.000000000000000E+000	6.54462e+08	0.000000000000000E+000	0.000000000000000E+000	5.47005	5.47005	0.0000000E+000	0.000000000000000E+000	0.00737878
1	1	0	1	0	0	0	2811.48	10	0.740722	10.0011	21.3324	21.3324	0	5.92567	11	0.00427921	0.000000000000000E+000	6.45124e+08	0.000000000000000E+000	0.000000000000000E+000	5.92567	5.92567	0.0000000E+000	0.000000000000000E+000	0.00740804
1	1	0	1	0	0	0	2975.48	10	0.743211	10.0013	22.9726	22.9726	0	6.38129	11	0.00461723	0.000000000000000E+000	6.46091e+08	0.000000000000000E+000	0.000000000000000E+000	6.38129	6.38129	0.0000000E+000	0.000000000000000E+000	0.00743308
1	1	0	1	0	0	0	3139.48	10	0.746327	10.0013	24.6129	24.6129	0	6.8369	11	0.0049565	0.000000000000000E+000	6.36451e+08	0.000000000000000E+000	0.000000000000000E+000	6.8369	6.8369	0.0000000E+000	0.000000000000000E+000	0.00746424
1	1	0	1	0	0	0	3303.48	10	0.748897	10.0018	26.2531	26.2531	0	7.29252	11	0.00529702	0.000000000000000E+000	6.36553e+08	0.000000000000000E+000	0.000000000000000E+000	7.29252	7.29252	0.0000000E+000	0.000000000000000E+000	0.00749033
1	1	0	1	0	0	0	3467.48	10	0.75096	10.0014	27.8933	27.8933	0	7.74814	11	0.00563863	0.000000000000000E+000	6.44104e+08	0.000000000000000E+000	0.000000000000000E+000	7.74814	7.74814	0.0000000E+000	0.000000000000000E+000	0.00751068
1	1	0	1	0	0	0	3631.48	10	0.753555	10.0007	29.5335	29.5335	0	8.20376	11	0.00598136	0.000000000000000E+000	6.4343e+08	0.000000000000000E+000	0.000000000000000E+000	8.20376	8.20376	0.0000000E+000	0.000000000000000E+000	0.00753605
1	1	0	1	0	0	0	3795.48	10	0.755443	10.0014	31.1737	31.1737	0	8.65937	11	0.00632519	0.000000000000000E+000	6.52334e+08	0.000000000000000E+000	0.000000000000000E+000	8.65937	8.65937	0.0000000E+000	0.000000000000000E+000	0.00755551
1	1	0	1	0	0	0	3959.48	10	0.758477	10.0007	32.814	32.814	0	9.11499	11	0.0066701	0.000000000000000E+000	6.45664e+08	0.000000000000000E+000	0.000000000000000E+000	9.11499	9.11499	0.0000000E+000	0.000000000000000E+000	0.00758532
1	1	0	1	0	0	0	4123.48	10	0.760089	10.0007	34.4542	34.4542	0	9.57061	11	0.00701604	0.000000000000000E+000	6.57089e+08	0.000000000000000E+000	0.000000000000000E+000	9.57061	9.57061	0.0000000E+000	0.000000000000000E+000	0.0076014
1	1	0	1	0	0	0	4287.48	10	0.762621	10.0015	36.0944	36.0944	0	10.0262	11	0.00736294	0.000000000000000E+000	6.56663e+08	0.000000000000000E+000	0.000000000000000E+000	10.0262	10.0262	0.0000000E+000	0.000000000000000E+000	0.00762735
1	1	0	1	0	0	0	4451.48	10	0.764568	10.001	37.7346	37.7346	0	10.4818	11	0.00771081	0.000000000000000E+000	6.63017e+08	0.000000000000000E+000	0.000000000000000E+000	10.4818	10.4818	0.0000000E+000	0.000000000000000E+000	0.00764648
1	1	0	1	0	0	0	4615.48	10	0.766404	10.001	39.3749	39.3749	0	10.9375	11	0.00805963	0.000000000000000E+000	6.70217e+08	0.000000000000000E+000	0.000000000000000E+000	10.9375	10.9375	0.0000000E+000	0.000000000000000E+000	0.00766485
1	1	0	1	0	0	0	4779.48	10	0.768721	10.0023	41.0151	41.0151	0	11.3931	11	0.00840939	0.000000000000000E+000	6.71643e+08	0.000000000000000E+000	0.000000000000000E+000	11.3931	11.3931	0.0000000E+000	0.000000000000000E+000	0.00768895
1	1	0	1	0	0	0	4943.48	10	0.770607	10.0011	42.6553	42.6553	0	11.8487	11	0.00876002	0.000000000000000E+000	6.77584e+08	0.000000000000000E+000	0.000000000000000E+000	11.8487	11.8487	0.0000000E+000	0.000000000000000E+000	0.00770692
1	1	0	1	0	0	0	5107.48	10	0.772825	10.0016	44.2955	44.2955	0	12.3043	11	0.00911152	0.000000000000000E+000	6.79693e+08	0.000000000000000E+000	0.000000000000000E+000	12.3043	12.3043	0.0000000E+000	0.000000000000000E+000	0.0077295
1	1	0	1	0	0	0	5271.48	10	0.774171	10.001	45.9357	45.9357	0	12.7599	11	0.00946391	0.000000000000000E+000	6.9059e+08	0.000000000000000E+000	0.000000000000000E+000	12.7599	12.7599	0.0000000E+000	0.000000000000000E+000	0.00774253
1	1	0	1	0	0	0	5435.48	10	0.776105	10.0017	47.576	47.576	0	13.2155	11	0.00981714	0.000000000000000E+000	6.95049e+08	0.000000000000000E+000	0.000000000000000E+000	13.2155	13.2155	0.0000000E+000	0.000000000000000E+000	0.0077624
1	1	0	1	0	0	0	5599.48	10	0.778172	10.0013	49.2162	49.2162	0	13.6712	11	0.0101713	0.000000000000000E+000	6.97927e+08	0.000000000000000E+000	0.000000000000000E+000	13.6712	13.6712	0.0000000E+000	0.000000000000000E+000	0.00778274
1	1	0	1	0	0	0	5763.48	10	0.77956	10.0012	50.8564	50.8564	0	14.1268	11	0.0105263	0.000000000000000E+000	7.07266e+08	0.000000000000000E+000	0.000000000000000E+000	14.1268	14.1268	0.0000000E+000	0.000000000000000E+000	0.00779657
1	1	0	1	0	0	0	5927.48	10	0.781932	10.001	52.4967	52.4967	0	14.5824	11	0.0108821	0.000000000000000E+000	7.0677e+08	0.000000000000000E+000	0.000000000000000E+000	14.5824	14.5824	0.0000000E+000	0.000000000000000E+000	0.00782014
1	1	0	1	0	0	0	6091.48	10	0.784139	10.0014	54.1369	54.1369	0	15.038	11	0.0112388	0.000000000000000E+000	7.07817e+08	0.000000000000000E+000	0.000000000000000E+000	15.038	15.038	0.0000000E+000	0.000000000000000E+000	0.00784251
1	1	0	1	0	0	0	6255.48	10	0.785533	10.0017	55.7771	55.7771	0	15.4936	11	0.0115963	0.000000000000000E+000	7.1621e+08	0.000000000000000E+000	0.000000000000000E+000	15.4936	15.4936	0.0000000E+000	0.000000000000000E+000	0.00785665
1	1	0	1	0	0	0	6419.48	10	0.78693	10.002	57.4173	57.4173	0	15.9493	11	0.0119547	0.000000000000000E+000	7.24282e+08	0.000000000000000E+000	0.000000000000000E+000	15.9493	15.9493	0.0000000E+000	0.000000000000000E+000	0.00787087
1	1	0	1	0	0	0	6583.48	10	0.789326	10.0015	59.0575	59.0575	0	16.4049	11	0.0123138	0.000000000000000E+000	7.23113e+08	0.000000000000000E+000	0.000000000000000E+000	16.4049	16.4049	0.0000000E+000	0.000000000000000E+000	0.00789444
1	1	0	1	0	0	0	6747.48	10	0.790992	10.0012	60.6978	60.6978	0	16.8605	11	0.0126738	0.000000000000000E+000	7.28338e+08	0.000000000000000E+000	0.000000000000000E+000	16.8605	16.8605	0.0000000E+000	0.000000000000000E+000	0.0079109
1	1	0	1	0	0	0	6911.48	10	0.792898	10.0014	62.338	62.338	0	17.3161	11	0.0130345	0.000000000000000E+000	7.31293e+08	0.000000000000000E+000	0.000000000000000E+000	17.3161	17.3161	0.0000000E+000	0.000000000000000E+000	0.00793012
1	1	0	1	0	0	0	7075.48	10	0.794369	10.0014	63.9782	63.9782	0	17.7717	11	0.013396	0.000000000000000E+000	7.37804e+08	0.000000000000000E+000	0.000000000000000E+000	17.7717	17.7717	0.0000000E+000	0.000000000000000E+000	0.00794478
1	1	0	1	0	0	0	7239.48	10	0.796081	10.0012	65.6185	65.6185	0	18.2273	11	0.0137583	0.000000000000000E+000	7.42073e+08	0.000000000000000E+000	0.000000000000000E+000	18.2273	18.2273	0.0000000E+000	0.000000000000000E+000	0.00796179
1	1	0	1	0	0	0	7403.48	10	0.797935	10.0012	67.2587	67.2587	0	18.683	11	0.0141215	0.000000000000000E+000	7.44995e+08	0.000000000000000E+000	0.000000000000000E+000	18.683	18.683	0.0000000E+000	0.000000000000000E+000	0.00798034
1	1	0	1	0	0	0	7567.48	10	0.79943	10.0006	68.8989	68.8989	0	19.1386	11	0.0144854	0.000000000000000E+000	7.50732e+08	0.000000000000000E+000	0.000000000000000E+000	19.1386	19.1386	0.0000000E+000	0.000000000000000E+000	0.00799479
1	1	0	1	0	0	0	7731.48	10	0.801126	10.0018	70.5391	70.5391	0	19.5942	11	0.0148501	0.000000000000000E+000	7.54657e+08	0.000000000000000E+000	0.000000000000000E+000	19.5942	19.5942	0.0000000E+000	0.000000000000000E+000	0.00801272
1	1	0	1	0	0	0	7878.53	10	0.802984	10.0021	72.0099	72.0099	0	20.0027	11	0.0151778	0.000000000000000E+000	7.55377e+08	0.000000000000000E+000	0.000000000000000E+000	20.0027	20.0027	0.0000000E+000	0.000000000000000E+000	0.0080315