File: Data_1mg/2022_01_27 FeNx 1mg ref309_set1_03_CP_C02.mpt
EC-Lab ASCII FILE
Nb header lines : 53

Chronopotentiometry

Run on channel : 2 (SN 12477)
User :
CE vs. WE compliance from -10 V to 10 V
Electrode connection : standard
Potential control : Ewe
Ewe ctrl range : min = -2.50 V, max = 2.50 V
Safety Limits :
	Do not start on E overload
Acquisition started on : 01/27/2023 13:25:48.279
Loaded Setting File :  C:\Users\grupogalan\Documents\EC-Lab\Data\Scott\_cyclic_pause_tafel.mps
Saved on :
	File : 2022_01_27 FeNx 1mg ref309_set1_03_CP_C02.mpr
	Directory : C:\Users\grupogalan\Documents\EC-Lab\Data\Scott\
	Host : 169.254.104.159
Device : VSP (SN 1176)
Address : USB
EC-Lab for windows v11.46 (software)
Internet server v11.40 (firmware)
Command interpretor v11.40 (firmware)
Electrode material :
Initial state :
Electrolyte :
Comments :
Electrode surface area : 0.000 cm²
Characteristic mass : 0.001 g
Equivalent Weight : 0.000 g/eq.
Density : 0.000 g/cm3
Volume (V) : 0.001 cm³
Cycle Definition : Charge/Discharge alternance
Ns                  0                   1                   2                   3                   4                   5                   6                   7                   8                   9                   10                  11                  12
Is                  10.000              18.000              32.000              56.000              100.000             178.000             316.000             562.000             1.000               1.778               3.162               5.623               10.000
unit Is             µA                  µA                  µA                  µA                  µA                  µA                  µA                  µA                  mA                  mA                  mA                  mA                  mA
vs.                 <None>              <None>              <None>              <None>              <None>              <None>              <None>              <None>              <None>              <None>              <None>              <None>              <None>
ts (h:m:s)          0:03:0.0000         0:03:0.0000         0:03:0.0000         0:03:0.0000         0:03:0.0000         0:03:0.0000         0:03:0.0000         0:03:0.0000         0:03:0.0000         0:03:0.0000         0:03:0.0000         0:03:0.0000         0:03:0.0000
EM (V)              pass                pass                pass                pass                pass                pass                pass                pass                pass                pass                pass                pass                pass
dQM                 500.000             900.000             1.600               2.800               5.000               8.900               15.800              28.100              50.000              88.900              158.100             281.150             500.000
unit dQM            nA.h                nA.h                µA.h                µA.h                µA.h                µA.h                µA.h                µA.h                µA.h                µA.h                µA.h                µA.h                µA.h
record              <Ewe>               <Ewe>               <Ewe>               <Ewe>               <Ewe>               <Ewe>               <Ewe>               <Ewe>               <Ewe>               <Ewe>               <Ewe>               <Ewe>               <Ewe>
dEs (mV)            0.00                0.00                0.00                0.00                0.00                0.00                0.00                0.00                0.00                0.00                0.00                0.00                0.00
dts (s)             1.0000              1.0000              1.0000              1.0000              1.0000              1.0000              1.0000              1.0000              1.0000              1.0000              1.0000              1.0000              1.0000
E range min (V)     -2.500              -2.500              -2.500              -2.500              -2.500              -2.500              -2.500              -2.500              -2.500              -2.500              -2.500              -2.500              -2.500
E range max (V)     2.500               2.500               2.500               2.500               2.500               2.500               2.500               2.500               2.500               2.500               2.500               2.500               2.500
I Range             10 mA               10 mA               10 mA               10 mA               10 mA               10 mA               10 mA               10 mA               10 mA               10 mA               10 mA               10 mA               10 mA
Bandwidth           5                   5                   5                   5                   5                   5                   5                   5                   5                   5                   5                   5                   5
goto Ns'            0                   0                   0                   0                   0                   0                   0                   0                   0                   0                   0                   0                   0
nc cycles           0                   0                   0                   0                   0                   0                   0                   0                   0                   0                   0                   0                   0

mode	ox/red	error	control changes	Ns changes	counter inc.	Ns	time/s	control/mA	<Ewe>/V	I/mA	dQ/C	(Q-Qo)/C	half cycle	Q charge/discharge/mA.h	I Range	Energy charge/W.h	Energy discharge/W.h	Capacitance charge/µF	Capacitance discharge/µF	Q discharge/mA.h	Q charge/mA.h	Capacity/mA.h	Efficiency/%	cycle number	P/W
1	1	0	1	0	0	0	671.507	0.01	-0.0195756	0.0108168	1.08592e-05	1.08592e-05	0	3.01643e-06	11	5.90485e-11	0.000000000000000E+000	0.000000000000000E+000	0.000000000000000E+000	0.000000000000000E+000	3.01643e-06	3.01643e-06	0.0000000E+000	0.000000000000000E+000	-2.11745e-07
1	1	0	1	0	0	0	728.507	0.01	0.653077	0.0111349	0.000662701	0.000662701	0	0.000184084	11	9.98941e-08	0.000000000000000E+000	985.206	0.000000000000000E+000	0.000000000000000E+000	0.000184084	0.000184084	0.0000000E+000	0.000000000000000E+000	7.27196e-06
1	1	0	1	0	0	0	785.507	0.01	0.650842	0.0111986	0.00131403	0.00131403	0	0.000365007	11	2.18002e-07	0.000000000000000E+000	1960.01	0.000000000000000E+000	0.000000000000000E+000	0.000365007	0.000365007	0.0000000E+000	0.000000000000000E+000	7.28849e-06
1	1	0	1	0	0	0	842.507	0.01	0.642887	0.0110077	0.00196524	0.00196524	0	0.000545901	11	3.35095e-07	0.000000000000000E+000	2966.58	0.000000000000000E+000	0.000000000000000E+000	0.000545901	0.000545901	0.0000000E+000	0.000000000000000E+000	7.07669e-06
1	1	0	0	0	0	1	898.56	0.018	0.66956	0.0184518	0.000902776	0.00296002	0	0.000822229	11	5.1982e-07	0.000000000000000E+000	4295.27	0.000000000000000E+000	0.000000000000000E+000	0.000822229	0.000822229	0.0000000E+000	0.000000000000000E+000	1.23546e-05
1	1	0	0	0	0	1	955.56	0.018	0.664382	0.01877	0.00197541	0.00403266	0	0.00112018	11	7.18519e-07	0.000000000000000E+000	5896.07	0.000000000000000E+000	0.000000000000000E+000	0.00112018	0.00112018	0.0000000E+000	0.000000000000000E+000	1.24704e-05
1	1	0	0	0	0	1	1012.56	0.018	0.658954	0.0185154	0.00304849	0.00510574	0	0.00141826	11	9.15782e-07	0.000000000000000E+000	7524.71	0.000000000000000E+000	0.000000000000000E+000	0.00141826	0.00141826	0.0000000E+000	0.000000000000000E+000	1.22008e-05
1	1	0	1	0	0	2	1068.56	0.032	0.684253	0.0325766	0.00125336	0.00669806	0	0.00186057	11	1.21632e-06	0.000000000000000E+000	9516.61	0.000000000000000E+000	0.000000000000000E+000	0.00186057	0.00186057	0.0000000E+000	0.000000000000000E+000	2.22906e-05
1	1	0	1	0	0	2	1125.56	0.032	0.681784	0.0337219	0.00313339	0.00857809	0	0.0023828	11	1.57305e-06	0.000000000000000E+000	12230.7	0.000000000000000E+000	0.000000000000000E+000	0.0023828	0.0023828	0.0000000E+000	0.000000000000000E+000	2.2991e-05
1	1	0	1	0	0	2	1182.56	0.032	0.679923	0.032004	0.00501383	0.0104585	0	0.00290515	11	1.92868e-06	0.000000000000000E+000	14951.5	0.000000000000000E+000	0.000000000000000E+000	0.00290515	0.00290515	0.0000000E+000	0.000000000000000E+000	2.17602e-05
1	1	0	0	0	0	3	1238.56	0.056	0.699562	0.0580267	0.00160788	0.0129901	0	0.00360837	11	2.41572e-06	0.000000000000000E+000	18063.5	0.000000000000000E+000	0.000000000000000E+000	0.00360837	0.00360837	0.0000000E+000	0.000000000000000E+000	4.05933e-05
1	1	0	0	0	0	3	1295.56	0.056	0.697977	0.0578358	0.00488222	0.0162645	0	0.00451791	11	3.05122e-06	0.000000000000000E+000	22666.6	0.000000000000000E+000	0.000000000000000E+000	0.00451791	0.00451791	0.0000000E+000	0.000000000000000E+000	4.03681e-05
1	1	0	0	0	0	3	1352.56	0.056	0.696964	0.0573904	0.00815698	0.0195392	0	0.00542756	11	3.68561e-06	0.000000000000000E+000	27268.9	0.000000000000000E+000	0.000000000000000E+000	0.00542756	0.00542756	0.0000000E+000	0.000000000000000E+000	3.99991e-05
1	1	0	1	0	0	4	1408.56	0.1	0.71669	0.101864	0.00182258	0.0235446	0	0.00654016	11	4.47111e-06	0.000000000000000E+000	31978.4	0.000000000000000E+000	0.000000000000000E+000	0.00654016	0.00654016	0.0000000E+000	0.000000000000000E+000	7.30052e-05
1	1	0	1	0	0	4	1465.56	0.1	0.715376	0.100528	0.0075955	0.0293175	0	0.00814375	11	5.61917e-06	0.000000000000000E+000	39890.4	0.000000000000000E+000	0.000000000000000E+000	0.00814375	0.00814375	0.0000000E+000	0.000000000000000E+000	7.19155e-05
1	1	0	1	0	0	4	1522.56	0.1	0.714846	0.101165	0.0133684	0.0350904	0	0.00974734	11	6.76596e-06	0.000000000000000E+000	47779.7	0.000000000000000E+000	0.000000000000000E+000	0.00974734	0.00974734	0.0000000E+000	0.000000000000000E+000	7.2317e-05
1	1	0	0	0	0	5	1578.56	0.178	0.736684	0.179105	0.00143281	0.0413848	0	0.0114958	11	8.02467e-06	0.000000000000000E+000	54722.9	0.000000000000000E+000	0.000000000000000E+000	0.0114958	0.0114958	0.0000000E+000	0.000000000000000E+000	0.000131944
1	1	0	0	0	0	5	1635.56	0.178	0.735443	0.17936	0.0116418	0.0515938	0	0.0143316	11	1.01114e-05	0.000000000000000E+000	68334.4	0.000000000000000E+000	0.000000000000000E+000	0.0143316	0.0143316	0.0000000E+000	0.000000000000000E+000	0.000131909
1	1	0	0	0	0	5	1692.56	0.178	0.735436	0.179678	0.0218501	0.0618021	0	0.0171672	11	1.21968e-05	0.000000000000000E+000	81855.7	0.000000000000000E+000	0.000000000000000E+000	0.0171672	0.0171672	0.0000000E+000	0.000000000000000E+000	0.000132142
1	1	0	0	0	0	5	1749.56	0.178	0.735833	0.179042	0.0320599	0.0720118	0	0.0200033	11	1.42832e-05	0.000000000000000E+000	95328.3	0.000000000000000E+000	0.000000000000000E+000	0.0200033	0.0200033	0.0000000E+000	0.000000000000000E+000	0.000131745
1	1	0	1	0	0	6	1805.56	0.316	0.759605	0.31749	0.0174478	0.0896388	0	0.0248997	11	1.80027e-05	0.000000000000000E+000	115042	0.000000000000000E+000	0.000000000000000E+000	0.0248997	0.0248997	0.0000000E+000	0.000000000000000E+000	0.000241167
1	1	0	1	0	0	6	1862.56	0.316	0.760262	0.317617	0.0355305	0.107721	0	0.0299226	11	2.18199e-05	0.000000000000000E+000	138133	0.000000000000000E+000	0.000000000000000E+000	0.0299226	0.0299226	0.0000000E+000	0.000000000000000E+000	0.000241473
1	1	0	1	0	0	6	1919.56	0.316	0.761266	0.31679	0.0536128	0.125804	0	0.0349455	11	2.56413e-05	0.000000000000000E+000	161113	0.000000000000000E+000	0.000000000000000E+000	0.0349455	0.0349455	0.0000000E+000	0.000000000000000E+000	0.000241161
1	1	0	0	0	0	7	1975.56	0.562	0.789657	0.563338	0.0253528	0.154646	0	0.0429573	11	3.19408e-05	0.000000000000000E+000	191102	0.000000000000000E+000	0.000000000000000E+000	0.0429573	0.0429573	0.0000000E+000	0.000000000000000E+000	0.000444843
1	1	0	0	0	0	7	2032.56	0.562	0.791398	0.563592	0.0574662	0.18676	0	0.0518777	11	3.89924e-05	0.000000000000000E+000	230290	0.000000000000000E+000	0.000000000000000E+000	0.0518777	0.0518777	0.0000000E+000	0.000000000000000E+000	0.000446026
1	1	0	0	0	0	7	2089.56	0.562	0.79363	0.562956	0.0895796	0.218873	0	0.060798	11	4.60613e-05	0.000000000000000E+000	269148	0.000000000000000E+000	0.000000000000000E+000	0.060798	0.060798	0.0000000E+000	0.000000000000000E+000	0.000446779
1	1	0	1	0	0	8	2145.56	1	0.827874	1.00051	0.0350423	0.265747	0	0.0738185	11	5.67256e-05	0.000000000000000E+000	313584	0.000000000000000E+000	0.000000000000000E+000	0.0738185	0.0738185	0.0000000E+000	0.000000000000000E+000	0.000828293
1	1	0	1	0	0	8	2202.56	1	0.831165	1.00057	0.0921109	0.322815	0	0.0896709	11	6.98736e-05	0.000000000000000E+000	379452	0.000000000000000E+000	0.000000000000000E+000	0.0896709	0.0896709	0.0000000E+000	0.000000000000000E+000	0.000831639
1	1	0	1	0	0	8	2259.56	1	0.835025	1.00076	0.149179	0.379883	0	0.105523	11	8.30797e-05	0.000000000000000E+000	444516	0.000000000000000E+000	0.000000000000000E+000	0.105523	0.105523	0.0000000E+000	0.000000000000000E+000	0.00083566
1	1	0	0	0	0	9	2315.56	1.778	0.876979	1.77826	0.0444672	0.455388	0	0.126497	11	0.000101114	0.000000000000000E+000	507931	0.000000000000000E+000	0.000000000000000E+000	0.126497	0.126497	0.0000000E+000	0.000000000000000E+000	0.0015595
1	1	0	0	0	0	9	2372.56	1.778	0.882999	1.7782	0.145852	0.556773	0	0.154659	11	0.000125891	0.000000000000000E+000	616872	0.000000000000000E+000	0.000000000000000E+000	0.154659	0.154659	0.0000000E+000	0.000000000000000E+000	0.00157015
1	1	0	0	0	0	9	2429.56	1.778	0.889675	1.77896	0.247238	0.658158	0	0.182822	11	0.000150854	0.000000000000000E+000	723847	0.000000000000000E+000	0.000000000000000E+000	0.182822	0.182822	0.0000000E+000	0.000000000000000E+000	0.0015827
1	1	0	1	0	0	10	2485.56	3.162	0.942122	3.16262	0.0474454	0.778531	0	0.216259	11	0.000181336	0.000000000000000E+000	809539	0.000000000000000E+000	0.000000000000000E+000	0.216259	0.216259	0.0000000E+000	0.000000000000000E+000	0.00297957
1	1	0	1	0	0	10	2542.56	3.162	0.949709	3.16293	0.227739	0.958825	0	0.26634	11	0.00022872	0.000000000000000E+000	989209	0.000000000000000E+000	0.000000000000000E+000	0.26634	0.26634	0.0000000E+000	0.000000000000000E+000	0.00300387
1	1	0	1	0	0	10	2599.56	3.162	0.955522	3.16293	0.408033	1.13912	0	0.316422	11	0.000276447	0.000000000000000E+000	1.16821e+06	0.000000000000000E+000	0.000000000000000E+000	0.316422	0.316422	0.0000000E+000	0.000000000000000E+000	0.00302226
1	1	0	0	0	0	11	2655.56	5.623	1.00924	5.62446	0.0281194	1.32856	0	0.369043	11	0.000327237	0.000000000000000E+000	1.29135e+06	0.000000000000000E+000	0.000000000000000E+000	0.369043	0.369043	0.0000000E+000	0.000000000000000E+000	0.00567643
1	1	0	0	0	0	11	2712.56	5.623	1.00479	5.62383	0.348686	1.64912	0	0.458089	11	0.000416758	0.000000000000000E+000	1.60989e+06	0.000000000000000E+000	0.000000000000000E+000	0.458089	0.458089	0.0000000E+000	0.000000000000000E+000	0.00565078
1	1	0	0	0	0	11	2769.56	5.623	1.00654	5.62357	0.669252	1.96969	0	0.547136	11	0.000506308	0.000000000000000E+000	1.91956e+06	0.000000000000000E+000	0.000000000000000E+000	0.547136	0.547136	0.0000000E+000	0.000000000000000E+000	0.00566036
1	1	0	0	0	0	11	2826.56	5.623	1.0104	5.62281	0.989819	2.29025	0	0.636182	11	0.00059612	0.000000000000000E+000	2.22359e+06	0.000000000000000E+000	0.000000000000000E+000	0.636182	0.636182	0.0000000E+000	0.000000000000000E+000	0.00568131
1	1	0	1	0	0	12	2882.56	10	1.0759	10.001	0.520071	2.83282	0	0.786895	11	0.000757416	0.000000000000000E+000	2.58593e+06	0.000000000000000E+000	0.000000000000000E+000	0.786895	0.786895	0.0000000E+000	0.000000000000000E+000	0.0107601
1	1	0	1	0	0	12	2939.56	10	1.08826	10.0021	1.09015	3.4029	0	0.945251	11	0.000928686	0.000000000000000E+000	3.07167e+06	0.000000000000000E+000	0.000000000000000E+000	0.945251	0.945251	0.0000000E+000	0.000000000000000E+000	0.0108848
1	1	0	1	0	0	12	2996.56	10	1.10518	10.0015	1.66023	3.97298	0	1.10361	11	0.00110233	0.000000000000000E+000	3.5323e+06	0.000000000000000E+000	0.000000000000000E+000	1.10361	1.10361	0.0000000E+000	0.000000000000000E+000	0.0110535
1	1	0	1	0	0	12	3010.56	10	1.11148	10.0019	1.80025	4.113	0	1.1425	11	0.00114542	0.000000000000000E+000	3.63642e+06	0.000000000000000E+000	0.000000000000000E+000	1.1425	1.1425	0.0000000E+000	0.000000000000000E+000	0.011117