File: Data_1mg/2022_01_26 IrOx 1mg  ref309 elect1 set1_03_CP_C02.mpt
EC-Lab ASCII FILE
Nb header lines : 53

Chronopotentiometry

Run on channel : 2 (SN 12477)
User :
CE vs. WE compliance from -10 V to 10 V
Electrode connection : standard
Potential control : Ewe
Ewe ctrl range : min = -2.50 V, max = 2.50 V
Safety Limits :
	Do not start on E overload
Acquisition started on : 01/26/2023 11:20:17.212
Loaded Setting File :  C:\Users\grupogalan\Documents\EC-Lab\Data\Scott\_cyclic_pause_tafel.mps
Saved on :
	File : 2022_01_26 IrOx 1mg  ref309 elect1 set1_03_CP_C02.mpr
	Directory : C:\Users\grupogalan\Documents\EC-Lab\Data\Scott\
	Host : 169.254.104.159
Device : VSP (SN 1176)
Address : USB
EC-Lab for windows v11.46 (software)
Internet server v11.40 (firmware)
Command interpretor v11.40 (firmware)
Electrode material :
Initial state :
Electrolyte :
Comments :
Electrode surface area : 0.000 cm²
Characteristic mass : 0.001 g
Equivalent Weight : 0.000 g/eq.
Density : 0.000 g/cm3
Volume (V) : 0.001 cm³
Cycle Definition : Charge/Discharge alternance
Ns                  0                   1                   2                   3                   4                   5                   6                   7                   8                   9                   10                  11                  12
Is                  10.000              18.000              32.000              56.000              100.000             178.000             316.000             562.000             1.000               1.778               3.162               5.623               10.000
unit Is             µA                  µA                  µA                  µA                  µA                  µA                  µA                  µA                  mA                  mA                  mA                  mA                  mA
vs.                 <None>              <None>              <None>              <None>              <None>              <None>              <None>              <None>              <None>              <None>              <None>              <None>              <None>
ts (h:m:s)          0:03:0.0000         0:03:0.0000         0:03:0.0000         0:03:0.0000         0:03:0.0000         0:03:0.0000         0:03:0.0000         0:03:0.0000         0:03:0.0000         0:03:0.0000         0:03:0.0000         0:03:0.0000         0:03:0.0000
EM (V)              pass                pass                pass                pass                pass                pass                pass                pass                pass                pass                pass                pass                pass
dQM                 500.000             900.000             1.600               2.800               5.000               8.900               15.800              28.100              50.000              88.900              158.100             281.150             500.000
unit dQM            nA.h                nA.h                µA.h                µA.h                µA.h                µA.h                µA.h                µA.h                µA.h                µA.h                µA.h                µA.h                µA.h
record              <Ewe>               <Ewe>               <Ewe>               <Ewe>               <Ewe>               <Ewe>               <Ewe>               <Ewe>               <Ewe>               <Ewe>               <Ewe>               <Ewe>               <Ewe>
dEs (mV)            0.00                0.00                0.00                0.00                0.00                0.00                0.00                0.00                0.00                0.00                0.00                0.00                0.00
dts (s)             1.0000              1.0000              1.0000              1.0000              1.0000              1.0000              1.0000              1.0000              1.0000              1.0000              1.0000              1.0000              1.0000
E range min (V)     -2.500              -2.500              -2.500              -2.500              -2.500              -2.500              -2.500              -2.500              -2.500              -2.500              -2.500              -2.500              -2.500
E range max (V)     2.500               2.500               2.500               2.500               2.500               2.500               2.500               2.500               2.500               2.500               2.500               2.500               2.500
I Range             10 mA               10 mA               10 mA               10 mA               10 mA               10 mA               10 mA               10 mA               10 mA               10 mA               10 mA               10 mA               10 mA
Bandwidth           5                   5                   5                   5                   5                   5                   5                   5                   5                   5                   5                   5                   5
goto Ns'            0                   0                   0                   0                   0                   0                   0                   0                   0                   0                   0                   0                   0
nc cycles           0                   0                   0                   0                   0                   0                   0                   0                   0                   0                   0                   0                   0

mode	ox/red	error	control changes	Ns changes	counter inc.	Ns	time/s	control/mA	<Ewe>/V	I/mA	dQ/C	(Q-Qo)/C	half cycle	Q charge/discharge/mA.h	I Range	Energy charge/W.h	Energy discharge/W.h	Capacitance charge/µF	Capacitance discharge/µF	Q discharge/mA.h	Q charge/mA.h	Capacity/mA.h	Efficiency/%	cycle number	P/W
1	1	0	0	0	0	0	650.74	0.01	0.0158662	0.0119621	1.10645e-05	1.10645e-05	0	3.07348e-06	11	4.87646e-11	0.000000000000000E+000	0.000000000000000E+000	0.000000000000000E+000	0.000000000000000E+000	3.07348e-06	3.07348e-06	0.0000000E+000	0.000000000000000E+000	1.89793e-07
1	1	0	0	0	0	0	686.74	0.01	0.0528791	0.0113894	0.000429753	0.000429753	0	0.000119376	11	4.26472e-09	0.000000000000000E+000	11610.9	0.000000000000000E+000	0.000000000000000E+000	0.000119376	0.000119376	0.0000000E+000	0.000000000000000E+000	6.02263e-07
1	1	0	0	0	0	0	722.74	0.01	0.08053	0.0117712	0.000847777	0.000847777	0	0.000235494	11	1.20919e-08	0.000000000000000E+000	13110.6	0.000000000000000E+000	0.000000000000000E+000	0.000235494	0.000235494	0.0000000E+000	0.000000000000000E+000	9.47933e-07
1	1	0	0	0	0	0	758.74	0.01	0.104799	0.0121529	0.00126575	0.00126575	0	0.000351598	11	2.29231e-08	0.000000000000000E+000	14232.8	0.000000000000000E+000	0.000000000000000E+000	0.000351598	0.000351598	0.0000000E+000	0.000000000000000E+000	1.27361e-06
1	1	0	0	0	0	0	794.74	0.01	0.125922	0.0120257	0.00168328	0.00168328	0	0.000467577	11	3.63716e-08	0.000000000000000E+000	15294.8	0.000000000000000E+000	0.000000000000000E+000	0.000467577	0.000467577	0.0000000E+000	0.000000000000000E+000	1.51429e-06
1	1	0	0	0	0	0	829.792	0.01	0.143905	0.0115803	0.00208961	0.00208961	0	0.000580447	11	5.16727e-08	0.000000000000000E+000	16320.1	0.000000000000000E+000	0.000000000000000E+000	0.000580447	0.000580447	0.0000000E+000	0.000000000000000E+000	1.66647e-06
1	1	0	1	0	0	1	865.792	0.018	0.179233	0.0196607	0.000682765	0.00277238	0	0.000770104	11	8.25357e-08	0.000000000000000E+000	16970.3	0.000000000000000E+000	0.000000000000000E+000	0.000770104	0.000770104	0.0000000E+000	0.000000000000000E+000	3.52384e-06
1	1	0	1	0	0	1	901.792	0.018	0.208202	0.01877	0.00136534	0.00345495	0	0.000959708	11	1.19427e-07	0.000000000000000E+000	17963.1	0.000000000000000E+000	0.000000000000000E+000	0.000959708	0.000959708	0.0000000E+000	0.000000000000000E+000	3.90794e-06
1	1	0	1	0	0	1	937.792	0.018	0.230478	0.019279	0.00204815	0.00413776	0	0.00114938	11	1.61189e-07	0.000000000000000E+000	19280.2	0.000000000000000E+000	0.000000000000000E+000	0.00114938	0.00114938	0.0000000E+000	0.000000000000000E+000	4.44337e-06
1	1	0	1	0	0	1	973.792	0.018	0.245538	0.0194698	0.00273113	0.00482074	0	0.0013391	11	2.06504e-07	0.000000000000000E+000	20989.7	0.000000000000000E+000	0.000000000000000E+000	0.0013391	0.0013391	0.0000000E+000	0.000000000000000E+000	4.78059e-06
1	1	0	1	0	0	1	1009.79	0.018	0.25269	0.0190881	0.00341376	0.00550337	0	0.00152871	11	2.53869e-07	0.000000000000000E+000	23238.2	0.000000000000000E+000	0.000000000000000E+000	0.00152871	0.00152871	0.0000000E+000	0.000000000000000E+000	4.82338e-06
1	1	0	0	0	0	2	1044.79	0.032	0.289893	0.0333401	0.00115931	0.00666269	0	0.00185075	11	3.42069e-07	0.000000000000000E+000	24314	0.000000000000000E+000	0.000000000000000E+000	0.00185075	0.00185075	0.0000000E+000	0.000000000000000E+000	9.66506e-06
1	1	0	0	0	0	2	1080.79	0.032	0.308351	0.0329584	0.00235174	0.00785512	0	0.00218198	11	4.41616e-07	0.000000000000000E+000	26856.5	0.000000000000000E+000	0.000000000000000E+000	0.00218198	0.00218198	0.0000000E+000	0.000000000000000E+000	1.01627e-05
1	1	0	0	0	0	2	1116.79	0.032	0.31475	0.03404	0.00354427	0.00904764	0	0.00251323	11	5.45205e-07	0.000000000000000E+000	30271.4	0.000000000000000E+000	0.000000000000000E+000	0.00251323	0.00251323	0.0000000E+000	0.000000000000000E+000	1.07141e-05
1	1	0	0	0	0	2	1152.79	0.032	0.311988	0.0341036	0.00473634	0.0102397	0	0.00284437	11	6.49131e-07	0.000000000000000E+000	34579.4	0.000000000000000E+000	0.000000000000000E+000	0.00284437	0.00284437	0.0000000E+000	0.000000000000000E+000	1.06399e-05
1	1	0	0	0	0	2	1188.79	0.032	0.303645	0.0331492	0.00592887	0.0114322	0	0.00317562	11	7.51167e-07	0.000000000000000E+000	39725.8	0.000000000000000E+000	0.000000000000000E+000	0.00317562	0.00317562	0.0000000E+000	0.000000000000000E+000	1.00656e-05
1	1	0	1	0	0	3	1223.79	0.056	0.347029	0.0580903	0.00195732	0.0134227	0	0.00372853	11	9.33443e-07	0.000000000000000E+000	40532.1	0.000000000000000E+000	0.000000000000000E+000	0.00372853	0.00372853	0.0000000E+000	0.000000000000000E+000	2.0159e-05
1	1	0	1	0	0	3	1259.79	0.056	0.365102	0.0573268	0.00403009	0.0154955	0	0.0043043	11	1.1392e-06	0.000000000000000E+000	44369.7	0.000000000000000E+000	0.000000000000000E+000	0.0043043	0.0043043	0.0000000E+000	0.000000000000000E+000	2.09301e-05
1	1	0	1	0	0	3	1295.79	0.056	0.373796	0.0576449	0.00610272	0.0175681	0	0.00488003	11	1.35238e-06	0.000000000000000E+000	49082.5	0.000000000000000E+000	0.000000000000000E+000	0.00488003	0.00488003	0.0000000E+000	0.000000000000000E+000	2.15475e-05
1	1	0	1	0	0	3	1331.79	0.056	0.376835	0.0579631	0.00817517	0.0196405	0	0.00545571	11	1.56871e-06	0.000000000000000E+000	54410.6	0.000000000000000E+000	0.000000000000000E+000	0.00545571	0.00545571	0.0000000E+000	0.000000000000000E+000	2.18425e-05
1	1	0	1	0	0	3	1367.79	0.056	0.375645	0.056436	0.0102481	0.0217135	0	0.00603153	11	1.78554e-06	0.000000000000000E+000	60352.3	0.000000000000000E+000	0.000000000000000E+000	0.00603153	0.00603153	0.0000000E+000	0.000000000000000E+000	2.11999e-05
1	1	0	0	0	0	4	1402.79	0.1	0.452672	0.102373	0.00334639	0.0251751	0	0.00699307	11	2.19185e-06	0.000000000000000E+000	57634.4	0.000000000000000E+000	0.000000000000000E+000	0.00699307	0.00699307	0.0000000E+000	0.000000000000000E+000	4.63416e-05
1	1	0	0	0	0	4	1438.79	0.1	0.49051	0.101355	0.00699703	0.0288257	0	0.00800714	11	2.67203e-06	0.000000000000000E+000	60731.2	0.000000000000000E+000	0.000000000000000E+000	0.00800714	0.00800714	0.0000000E+000	0.000000000000000E+000	4.97159e-05
1	1	0	0	0	0	4	1474.79	0.1	0.513355	0.101292	0.0106478	0.0324765	0	0.00902124	11	3.18267e-06	0.000000000000000E+000	65280.8	0.000000000000000E+000	0.000000000000000E+000	0.00902124	0.00902124	0.0000000E+000	0.000000000000000E+000	5.19986e-05
1	1	0	0	0	0	4	1510.79	0.1	0.525334	0.100974	0.0142985	0.0361271	0	0.0100353	11	3.71034e-06	0.000000000000000E+000	70911.6	0.000000000000000E+000	0.000000000000000E+000	0.0100353	0.0100353	0.0000000E+000	0.000000000000000E+000	5.30449e-05
1	1	0	0	0	0	4	1546.79	0.1	0.530816	0.101292	0.0179491	0.0397777	0	0.0110494	11	4.24628e-06	0.000000000000000E+000	77245.8	0.000000000000000E+000	0.000000000000000E+000	0.0110494	0.0110494	0.0000000E+000	0.000000000000000E+000	5.37673e-05
1	1	0	1	0	0	5	1581.79	0.178	0.566238	0.178914	0.00573586	0.0458178	0	0.0127272	11	5.18592e-06	0.000000000000000E+000	83248.8	0.000000000000000E+000	0.000000000000000E+000	0.0127272	0.0127272	0.0000000E+000	0.000000000000000E+000	0.000101308
1	1	0	1	0	0	5	1617.79	0.178	0.568114	0.179932	0.0121886	0.0522706	0	0.0145196	11	6.20299e-06	0.000000000000000E+000	94650.6	0.000000000000000E+000	0.000000000000000E+000	0.0145196	0.0145196	0.0000000E+000	0.000000000000000E+000	0.000102222
1	1	0	1	0	0	5	1653.79	0.178	0.568762	0.178851	0.0186416	0.0587235	0	0.0163121	11	7.22198e-06	0.000000000000000E+000	106211	0.000000000000000E+000	0.000000000000000E+000	0.0163121	0.0163121	0.0000000E+000	0.000000000000000E+000	0.000101724
1	1	0	1	0	0	5	1689.79	0.178	0.568978	0.179551	0.0250943	0.0651763	0	0.0181045	11	8.24171e-06	0.000000000000000E+000	117836	0.000000000000000E+000	0.000000000000000E+000	0.0181045	0.0181045	0.0000000E+000	0.000000000000000E+000	0.00010216
1	1	0	1	0	0	5	1725.79	0.178	0.569253	0.179614	0.0315465	0.0716285	0	0.0198968	11	9.26165e-06	0.000000000000000E+000	129436	0.000000000000000E+000	0.000000000000000E+000	0.0198968	0.0198968	0.0000000E+000	0.000000000000000E+000	0.000102246
1	1	0	0	0	0	6	1760.79	0.316	0.586277	0.317935	0.00983834	0.0821838	0	0.0228288	11	1.09748e-05	0.000000000000000E+000	144078	0.000000000000000E+000	0.000000000000000E+000	0.0228288	0.0228288	0.0000000E+000	0.000000000000000E+000	0.000186398
1	1	0	0	0	0	6	1796.79	0.316	0.586693	0.317999	0.0212638	0.0936093	0	0.0260026	11	1.28364e-05	0.000000000000000E+000	163989	0.000000000000000E+000	0.000000000000000E+000	0.0260026	0.0260026	0.0000000E+000	0.000000000000000E+000	0.000186568
1	1	0	0	0	0	6	1832.79	0.316	0.586892	0.31749	0.0326889	0.105034	0	0.0291762	11	1.46987e-05	0.000000000000000E+000	183940	0.000000000000000E+000	0.000000000000000E+000	0.0291762	0.0291762	0.0000000E+000	0.000000000000000E+000	0.000186332
1	1	0	0	0	0	6	1868.79	0.316	0.587074	0.317999	0.0441141	0.11646	0	0.0323499	11	1.65618e-05	0.000000000000000E+000	203883	0.000000000000000E+000	0.000000000000000E+000	0.0323499	0.0323499	0.0000000E+000	0.000000000000000E+000	0.000186689
1	1	0	0	0	0	6	1904.79	0.316	0.587189	0.317045	0.0555402	0.127886	0	0.0355238	11	1.84252e-05	0.000000000000000E+000	223841	0.000000000000000E+000	0.000000000000000E+000	0.0355238	0.0355238	0.0000000E+000	0.000000000000000E+000	0.000186165
1	1	0	1	0	0	7	1939.79	0.562	0.602043	0.564992	0.0169056	0.146378	0	0.0406606	11	2.15089e-05	0.000000000000000E+000	249717	0.000000000000000E+000	0.000000000000000E+000	0.0406606	0.0406606	0.0000000E+000	0.000000000000000E+000	0.00034015
1	1	0	1	0	0	7	1975.79	0.562	0.602295	0.56391	0.0371929	0.166666	0	0.046296	11	2.49023e-05	0.000000000000000E+000	284204	0.000000000000000E+000	0.000000000000000E+000	0.046296	0.046296	0.0000000E+000	0.000000000000000E+000	0.000339641
1	1	0	1	0	0	7	2011.79	0.562	0.60257	0.56321	0.0574794	0.186952	0	0.0519311	11	2.82971e-05	0.000000000000000E+000	318648	0.000000000000000E+000	0.000000000000000E+000	0.0519311	0.0519311	0.0000000E+000	0.000000000000000E+000	0.000339374
1	1	0	1	0	0	7	2047.79	0.562	0.602764	0.56302	0.0777658	0.207238	0	0.0575662	11	3.16929e-05	0.000000000000000E+000	353108	0.000000000000000E+000	0.000000000000000E+000	0.0575662	0.0575662	0.0000000E+000	0.000000000000000E+000	0.000339368
1	1	0	1	0	0	7	2083.79	0.562	0.602682	0.563338	0.0980524	0.227525	0	0.0632014	11	3.5089e-05	0.000000000000000E+000	387728	0.000000000000000E+000	0.000000000000000E+000	0.0632014	0.0632014	0.0000000E+000	0.000000000000000E+000	0.000339514
1	1	0	0	0	0	8	2118.79	1	0.617626	1.0007	0.029038	0.259944	0	0.0722067	11	4.06337e-05	0.000000000000000E+000	431974	0.000000000000000E+000	0.000000000000000E+000	0.0722067	0.0722067	0.0000000E+000	0.000000000000000E+000	0.000618056
1	1	0	0	0	0	8	2121.79	1	0.617607	1.00222	0.032042	0.262948	0	0.0730412	11	4.1149e-05	0.000000000000000E+000	436979	0.000000000000000E+000	0.000000000000000E+000	0.0730412	0.0730412	0.0000000E+000	0.000000000000000E+000	0.000618981