File: Data_1mg/2022_01_25 Co30Ni60Fe10Nx 1mg  ref309 elect1 cv and bulk_01_CV_C02.mpt
EC-Lab ASCII FILE
Nb header lines : 57

Cyclic Voltammetry

Run on channel : 2 (SN 12477)
User :
CE vs. WE compliance from -10 V to 10 V
Electrode connection : standard
Potential control : Ewe
Ewe ctrl range : min = -2.50 V, max = 2.50 V
Safety Limits :
	Do not start on E overload
Acquisition started on : 01/25/2023 16:18:45.043
Loaded Setting File :  C:\Users\grupogalan\Documents\EC-Lab\Data\Scott\_cyclic_pause_cp2hr.mps
Saved on :
	File : 2022_01_25 Co30Ni60Fe10Nx 1mg  ref309 elect1 cv and bulk_01_CV_C02.mpr
	Directory : C:\Users\grupogalan\Documents\EC-Lab\Data\Scott\
	Host : 169.254.104.159
Device : VSP (SN 1176)
Address : USB
EC-Lab for windows v11.46 (software)
Internet server v11.40 (firmware)
Command interpretor v11.40 (firmware)
Electrode material :
Initial state :
Electrolyte :
Comments :
Electrode surface area : 0.000 cm²
Characteristic mass : 0.001 g
Equivalent Weight : 0.000 g/eq.
Density : 0.000 g/cm3
Volume (V) : 0.001 cm³
Cycle Definition : Charge/Discharge alternance
Ei (V)              0.000
vs.                 Eoc
dE/dt               10.000
dE/dt unit          mV/s
E1 (V)              1.000
vs.                 Ref
Step percent        50
N                   10
E range min (V)     -2.500
E range max (V)     2.500
I Range             Auto
I Range min         Unset
I Range max         Unset
I Range init        Unset
Bandwidth           5
E2 (V)              0.000
vs.                 Ref
nc cycles           2
Reverse Scan        1
Ef (V)              0.000
vs.                 Eoc

mode	ox/red	error	control changes	counter inc.	time/s	control/V	Ewe/V	<I>/mA	cycle number	(Q-Qo)/C	I Range	P/W
2	0	0	1	0	0.000000000000000E+000	0.346451	0.348005	-0.00517076	1	0.0000000E+000	13	-1.79945e-06
2	1	0	1	0	4.2559	0.38901	0.388219	0.0283435	1	7.23047e-05	13	1.10035e-05
2	1	0	1	0	8.557	0.432021	0.431584	0.0518701	1	0.000246482	13	2.23863e-05
2	1	0	0	0	12.858	0.475031	0.474052	0.0764625	1	0.000526696	13	3.62472e-05
2	1	0	1	0	17.189	0.518341	0.515967	0.0976392	1	0.000908315	12	5.03787e-05
2	1	0	0	0	21.49	0.561351	0.559468	0.118314	1	0.001374	12	6.61929e-05
2	1	0	1	0	25.791	0.604361	0.604278	0.166875	1	0.00196726	12	0.000100839
2	1	0	0	0	30.092	0.647371	0.646234	0.360724	1	0.00302577	12	0.000233112
2	1	0	1	0	34.393	0.690381	0.689915	0.858383	1	0.0055151	12	0.000592211
2	1	0	0	0	38.724	0.733691	0.735354	1.85649	1	0.0111829	11	0.00136518
2	1	0	1	0	43.025	0.776702	0.776383	3.61178	1	0.0226109	11	0.00280412
2	1	0	0	0	47.326	0.819712	0.819158	6.49684	1	0.043905	11	0.00532194
2	1	0	1	0	51.627	0.862722	0.861183	10.6687	1	0.0803967	11	0.00918773
2	1	0	0	0	55.958	0.906032	0.905842	16.0219	1	0.137882	10	0.0145133
2	1	0	1	0	60.259	0.949042	0.949479	22.0368	1	0.219678	10	0.0209235
2	1	0	0	0	64.56	0.992052	0.992812	27.9431	1	0.327509	10	0.0277423
2	1	0	0	0	68.7116	0.966446	0.966387	21.4663	1	0.433686	10	0.0207447
2	1	0	1	0	73.0126	0.923436	0.924046	14.9557	1	0.511074	10	0.0138198
2	1	0	0	0	77.3136	0.880426	0.881414	10.2476	1	0.564732	10	0.00903235
2	1	0	1	0	81.6146	0.837416	0.837178	6.72709	1	0.60083	10	0.00563177
2	1	0	0	0	85.9456	0.794105	0.794944	4.12962	1	0.624019	11	0.00328282
2	1	0	1	0	90.2466	0.751096	0.750266	2.37756	1	0.637738	11	0.0017838
2	1	0	0	0	94.5476	0.708085	0.708118	1.25698	1	0.645349	11	0.000890089
2	1	0	1	0	98.8486	0.665075	0.664213	0.58479	1	0.649171	11	0.000388425
2	1	0	0	0	103.18	0.621765	0.62204	0.216904	1	0.650808	12	0.000134923
2	1	0	1	0	107.481	0.578755	0.579957	0.0525529	1	0.651331	12	3.04784e-05
2	1	0	0	0	111.782	0.535745	0.536008	-0.00784964	1	0.651401	12	-4.20747e-06
2	0	0	1	0	116.083	0.492735	0.48986	-0.0302294	1	0.651308	12	-1.48082e-05
2	0	0	0	0	120.384	0.449725	0.450508	-0.0420418	1	0.651147	12	-1.89402e-05
2	0	0	1	0	124.685	0.406715	0.407155	-0.0503755	1	0.650945	12	-2.05106e-05
2	0	0	1	0	128.986	0.363704	0.363309	-0.059948	1	0.650706	12	-2.17796e-05
2	0	0	1	0	133.287	0.320695	0.319968	-0.0697196	1	0.650423	12	-2.2308e-05
2	0	0	1	0	137.588	0.277684	0.27627	-0.0688955	1	0.650115	12	-1.90337e-05
2	0	0	0	0	141.889	0.234674	0.236308	-0.0552279	1	0.649846	12	-1.30508e-05
2	0	0	1	0	146.19	0.191664	0.192169	-0.0447791	1	0.649631	12	-8.60517e-06
2	0	0	0	0	150.491	0.148654	0.148168	-0.0392319	1	0.64945	12	-5.8129e-06
2	0	0	1	0	154.792	0.105644	0.10632	-0.0357715	1	0.649288	12	-3.80323e-06
2	0	0	0	0	159.093	0.062634	0.0618589	-0.0331977	1	0.649139	12	-2.05358e-06
2	0	0	1	0	163.394	0.0196239	0.0191278	-0.0307569	1	0.649	12	-5.88313e-07
2	0	0	0	1	167.515	0.0215243	0.019952	-0.0250547	1	0.648881	12	-4.9989e-07
2	0	0	1	1	171.816	0.0645344	0.0650824	-0.0193238	1	0.648789	12	-1.25764e-06
2	0	0	1	1	176.117	0.107545	0.107327	-0.0154218	1	0.648716	12	-1.65518e-06
2	0	0	1	1	180.418	0.150555	0.149992	-0.0126298	1	0.648658	12	-1.89438e-06
2	0	0	1	1	184.719	0.193565	0.193931	-0.00981611	1	0.648611	12	-1.90365e-06
2	0	0	0	1	189.02	0.236575	0.235664	-0.00700686	1	0.648577	12	-1.65127e-06
2	1	0	1	1	193.321	0.279585	0.279153	-0.00341239	1	0.648555	12	-9.52579e-07
2	0	0	0	1	197.622	0.322595	0.322975	0.00231688	1	0.648553	12	7.48296e-07
2	1	0	1	1	201.743	0.363805	0.363825	0.0157988	2	0.648589	12	5.748e-06
2	1	0	0	1	206.044	0.406815	0.407276	0.0448589	2	0.648715	12	1.82699e-05
2	1	0	1	1	210.345	0.449825	0.449355	0.0771478	2	0.648983	12	3.46667e-05
2	1	0	0	1	214.646	0.492835	0.49203	0.101044	2	0.649373	12	4.97168e-05
2	1	0	1	1	218.947	0.535845	0.53454	0.117421	2	0.649848	12	6.2766e-05
2	1	0	0	1	223.248	0.578855	0.578469	0.134115	2	0.650389	12	7.75813e-05
2	1	0	1	1	227.549	0.621865	0.621377	0.211683	2	0.651089	12	0.000131535
2	1	0	0	1	231.85	0.664875	0.664202	0.520445	2	0.652553	12	0.00034568
2	1	0	1	1	236.181	0.708185	0.708343	1.25023	2	0.656209	11	0.000885589
2	1	0	0	1	240.482	0.751195	0.750964	2.57765	2	0.664193	11	0.00193572
2	1	0	1	1	244.783	0.794205	0.793759	4.75572	2	0.679613	11	0.00377489
2	1	0	0	1	249.084	0.837216	0.837271	7.99088	2	0.706653	11	0.00669053
2	1	0	1	1	253.415	0.880526	0.88009	12.2166	2	0.750128	10	0.0107517
2	1	0	0	1	257.716	0.923536	0.923215	17.029	2	0.812937	10	0.0157214
2	1	0	1	1	262.017	0.966546	0.966501	22.0895	2	0.89719	10	0.0213495
2	1	0	1	1	266.219	0.991452	0.991808	24.1491	2	0.998902	10	0.0239513
2	1	0	0	1	270.52	0.948442	0.947929	17.4122	2	1.08731	10	0.0165056
2	1	0	1	1	274.821	0.905432	0.905312	12.4937	2	1.1511	10	0.0113107
2	1	0	0	1	279.122	0.862422	0.863076	8.71038	2	1.19635	10	0.00751772
2	1	0	1	1	283.423	0.819411	0.819694	5.70756	2	1.22706	10	0.00467845
2	1	0	0	1	287.754	0.776101	0.775422	3.44451	2	1.2466	11	0.00267095
2	1	0	1	1	292.055	0.733091	0.732543	1.91493	2	1.25788	11	0.00140277
2	1	0	0	1	296.356	0.690081	0.68985	0.956539	2	1.26387	11	0.000659869
2	1	0	1	1	300.687	0.646771	0.646718	0.402182	2	1.26669	12	0.000260099
2	1	0	0	1	304.988	0.603761	0.604077	0.129113	2	1.26775	12	7.79939e-05
2	1	0	1	1	309.289	0.560751	0.560072	0.0191655	2	1.26802	12	1.07341e-05
2	0	0	0	1	313.59	0.517741	0.517161	-0.0189013	2	1.268	12	-9.775e-06
2	0	0	1	1	317.891	0.474731	0.4739	-0.034622	2	1.26788	12	-1.64074e-05
2	0	0	1	1	322.192	0.43172	0.431287	-0.0438313	2	1.26771	12	-1.89039e-05
2	0	0	1	1	326.493	0.388711	0.388091	-0.0521429	2	1.2675	12	-2.02362e-05
2	0	0	1	1	330.794	0.3457	0.345376	-0.0615855	2	1.26725	12	-2.12702e-05
2	0	0	0	1	335.095	0.30269	0.302563	-0.0666532	2	1.26697	12	-2.01668e-05
2	0	0	1	1	339.396	0.25968	0.259132	-0.058937	2	1.26669	12	-1.52725e-05
2	0	0	0	1	343.697	0.21667	0.216601	-0.0482391	2	1.26646	12	-1.04487e-05
2	0	0	1	1	347.998	0.17366	0.172625	-0.0409848	2	1.26627	12	-7.075e-06
2	0	0	0	1	352.299	0.13065	0.130604	-0.0371978	2	1.2661	12	-4.85817e-06
2	0	0	1	1	356.6	0.0876398	0.0874779	-0.0338981	2	1.26595	12	-2.96533e-06
2	0	0	0	1	360.901	0.0446297	0.0445017	-0.0318284	2	1.2658	12	-1.41642e-06
2	0	0	1	1	365.202	0.00161966	0.00133892	-0.0303818	2	1.26567	12	-4.06787e-08
2	0	0	1	0	369.324	0.0395292	0.0394325	-0.0223827	2	1.26556	12	-8.82606e-07
2	0	0	1	0	373.625	0.0825384	0.0824728	-0.0175085	2	1.26548	12	-1.44398e-06
2	0	0	1	0	377.926	0.125549	0.125137	-0.0140941	2	1.26542	12	-1.76369e-06
2	0	0	0	0	382.227	0.168559	0.168573	-0.0115367	2	1.26536	12	-1.94478e-06
2	1	0	1	0	386.528	0.211569	0.211464	-0.00852905	2	1.26532	12	-1.80359e-06
2	0	0	0	0	390.829	0.254579	0.254021	-0.00562289	2	1.26529	12	-1.42833e-06
2	1	0	1	0	395.13	0.297589	0.297813	-0.00134036	2	1.26528	12	-3.99178e-07
2	1	0	0	0	399.431	0.340599	0.340566	0.00657875	2	1.26529	12	2.2405e-06
2	1	0	1	0	403.552	0.381809	0.381934	0.0239434	3	1.26535	12	9.1448e-06
2	1	0	0	0	407.853	0.424819	0.42475	0.0554426	3	1.26552	12	2.35492e-05
2	1	0	1	0	412.154	0.467829	0.467517	0.0823403	3	1.26582	12	3.84955e-05
2	1	0	0	0	416.455	0.510839	0.509996	0.102586	3	1.26622	12	5.23183e-05
2	1	0	1	0	420.756	0.553849	0.553079	0.117446	3	1.2667	12	6.49567e-05
2	1	0	0	0	425.057	0.596859	0.596131	0.144426	3	1.26725	12	8.60969e-05
2	1	0	1	0	429.358	0.639869	0.639946	0.285564	3	1.26811	12	0.000182745
2	1	0	0	0	433.659	0.68288	0.682589	0.719543	3	1.27014	12	0.000491152
2	1	0	1	0	437.99	0.72619	0.726356	1.62907	3	1.27503	11	0.00118329
2	1	0	0	0	442.291	0.7692	0.768623	3.19532	3	1.28514	11	0.00245599
2	1	0	1	0	446.592	0.81221	0.811478	5.65427	3	1.30382	11	0.00458831
2	1	0	0	0	450.893	0.85522	0.855789	9.07945	3	1.33522	11	0.00777009
2	1	0	1	0	455.224	0.89853	0.898915	13.3137	3	1.38351	10	0.0119679
2	1	0	0	0	459.525	0.94154	0.941532	17.8631	3	1.45048	10	0.0168186
2	1	0	1	0	463.826	0.984551	0.98493	22.4443	3	1.53722	10	0.0221061
2	1	0	1	0	468.027	0.973448	0.973256	19.6016	3	1.63073	10	0.0190774
2	1	0	0	0	472.328	0.930438	0.930085	14.3187	3	1.70305	10	0.0133176
2	1	0	1	0	476.629	0.887427	0.887389	10.2827	3	1.75559	10	0.00912474
2	1	0	0	0	480.93	0.844417	0.84399	7.06246	3	1.79261	10	0.00596065
2	1	0	1	0	485.246	0.801257	0.800045	4.49863	3	1.81729	10	0.0035991
2	1	0	0	0	489.562	0.758097	0.758007	2.61633	3	1.83236	11	0.0019832
2	1	0	1	0	493.863	0.715087	0.714106	1.38874	3	1.84076	11	0.000991706
2	1	0	0	0	498.164	0.672077	0.671703	0.648025	3	1.84499	11	0.00043528
2	1	0	1	0	502.495	0.628767	0.62807	0.246159	3	1.84682	12	0.000154605
2	1	0	0	0	506.796	0.585757	0.585255	0.0652512	3	1.84743	12	3.81886e-05
2	0	0	1	0	511.097	0.542747	0.542738	-0.00115107	3	1.84754	12	-6.24727e-07
2	0	0	1	0	515.398	0.499736	0.499489	-0.0256998	3	1.84747	12	-1.28368e-05
2	0	0	1	0	519.699	0.456727	0.456324	-0.0373179	3	1.84733	12	-1.70291e-05
2	0	0	1	0	524.001	0.413716	0.413433	-0.045254	3	1.84715	12	-1.87095e-05
2	0	0	0	0	528.302	0.370706	0.371215	-0.0535556	3	1.84693	12	-1.98806e-05
2	0	0	1	0	532.603	0.327696	0.32717	-0.0617201	3	1.84668	12	-2.0193e-05
2	0	0	0	0	536.904	0.284686	0.284659	-0.0620652	3	1.84641	12	-1.76674e-05
2	0	0	1	0	541.205	0.241676	0.2412	-0.052001	3	1.84616	12	-1.25426e-05
2	0	0	0	0	545.506	0.198666	0.198748	-0.0438042	3	1.84595	12	-8.70599e-06
2	0	0	1	0	549.807	0.155656	0.155181	-0.0382941	3	1.84577	12	-5.94251e-06
2	0	0	0	0	554.108	0.112646	0.112366	-0.0350818	3	1.84562	12	-3.942e-06
2	0	0	1	0	558.409	0.0696356	0.0683992	-0.0324992	3	1.84547	12	-2.22292e-06
2	0	0	0	0	562.71	0.0266255	0.0263596	-0.0307103	3	1.84533	12	-8.09513e-07
2	0	0	1	1	566.831	0.0145222	0.0147213	-0.0260648	3	1.84521	12	-3.83707e-07
2	0	0	1	1	571.132	0.0575328	0.0569479	-0.0197948	3	1.84512	12	-1.12727e-06
2	0	0	0	1	575.433	0.100543	0.0997777	-0.0160659	3	1.84504	12	-1.60302e-06
2	0	0	1	1	579.734	0.143553	0.143702	-0.0129305	3	1.84498	12	-1.85813e-06
2	0	0	0	1	584.035	0.186563	0.186947	-0.010162	3	1.84493	12	-1.89974e-06
2	0	0	1	1	588.336	0.229573	0.22875	-0.00743538	3	1.8449	12	-1.70084e-06
2	0	0	0	1	592.637	0.272583	0.272296	-0.00425408	3	1.84488	12	-1.15837e-06
2	0	0	1	1	596.938	0.315593	0.316143	0.000972357	3	1.84487	12	3.07404e-07
2	1	0	0	1	599.993	0.346151	0.344778	0.00768249	3	1.84488	12	2.64875e-06