File: Data_1mg/2022_01_30 CoNx 1mg ref309_C05.mpt
EC-Lab ASCII FILE
Nb header lines : 63

Potentio Electrochemical Impedance Spectroscopy

Run on channel : 5 (SN 30436)
User :
CE vs. WE compliance from -10 V to 10 V
Electrode connection : standard
Potential control : Ewe
Ewe ctrl range : min = -10.00 V, max = 10.00 V
Safety Limits :
	Do not start on E overload
Acquisition started on : 01/30/2023 10:30:37.764
Loaded Setting File :  NONE
Saved on :
	File : 2022_01_30 CoNx 1mg ref309_C05.mpr
	Directory : C:\Users\grupogalan\Documents\EC-Lab\Data\Scott\
	Host : 169.254.104.159
Device : VSP (SN 1176)
Address : USB
EC-Lab for windows v11.46 (software)
Internet server v11.40 (firmware)
Command interpretor v11.40 (firmware)
Electrode material :
Initial state :
Electrolyte :
Comments :
Electrode surface area : 0.001 cm²
Characteristic mass : 0.001 g
Equivalent Weight : 0.000 g/eq.
Density : 0.000 g/cm3
Volume (V) : 0.001 cm³
Cycle Definition : Charge/Discharge alternance
Mode                Single sine
E (V)               0.0000
vs.                 Eoc
tE (h:m:s)          0:00:0.0000
record              0
dI                  0.000
unit dI             mA
dt (s)              0.000
fi                  200.000
unit fi             kHz
ff                  100.000
unit ff             mHz
Nd                  6
Points              per decade
spacing             Logarithmic
Va (mV)             10.0
pw                  0.10
Na                  2
corr                0
E range min (V)     -10.000
E range max (V)     10.000
I Range             Auto
Bandwidth           5
nc cycles           0
goto Ns'            0
nr cycles           0
inc. cycle          0

freq/Hz	Re(Z)/Ohm	-Im(Z)/Ohm	|Z|/Ohm	Phase(Z)/deg	time/s	<Ewe>/V	<I>/mA	Cs/µF	Cp/µF	cycle number	I Range	|Ewe|/V	|I|/A	Ns	(Q-Qo)/mA.h	Re(Y)/Ohm-1	Im(Y)/Ohm-1	|Y|/Ohm-1	Phase(Y)/deg	Re(C)/nF	Im(C)/nF	|C|/nF	Phase(C)/deg	Re(M)	Im(M)	|M|	Phase(M)/deg	Re(Permittivity)	Im(Permittivity)	|Permittivity|	Phase(Permittivity)/deg	Re(Resistivity)/Ohm.cm	Im(Resistivity)/Ohm.cm	|Resistivity|/Ohm.cm	Phase(Resistivity)/deg	Re(Conductivity)/mS/cm	Im(Conductivity)/mS/cm	|Conductivity|/mS/cm	Phase(Conductivity)/deg	Tan(Delta)	Loss Angle(Delta)/deg	dq/mA.h
199998	1.38044	-1.33516	1.92048	44.0447	2.38049	-0.210703	-0.18287	-0.596022	-0.288075	1	9	0.00666856	0.00347234	0	-2.78506e-05	0.37428	-0.362003	0.520703	-44.0447	-288.075	297.845	414.366	-134.045	0.0000000E+000	0.0000000E+000	0.0000000E+000	134.045	0.0000000E+000	0.0000000E+000	0.0000000E+000	-134.045	0.0000000E+000	0.0000000E+000	0.0000000E+000	44.0447	0.0000000E+000	0.0000000E+000	0.0000000E+000	-44.0447	-1.03392	-44.0447	-2.78506e-05
91291.2	0.974665	-0.213686	0.997814	12.3659	3.36148	-0.210545	-0.1669	-8.15858	-0.37417	1	9	0.0100258	0.0100478	0	-9.90262e-05	0.978939	-0.214624	1.00219	-12.3659	-374.17	1706.66	1747.2	-102.366	0.0000000E+000	0.0000000E+000	0.0000000E+000	102.366	0.0000000E+000	0.0000000E+000	0.0000000E+000	-102.366	0.0000000E+000	0.0000000E+000	0.0000000E+000	12.3659	0.0000000E+000	0.0000000E+000	0.0000000E+000	-12.3659	-4.56119	-12.3659	-4.55238e-05
41669.8	0.988174	0.0444133	0.989171	-2.57342	4.34248	-0.210525	-0.167104	85.9975	0.173368	1	9	0.00997013	0.0100793	0	-0.000102799	1.00993	0.045391	1.01095	2.57342	173.368	3857.35	3861.25	-87.4266	0.0000000E+000	0.0000000E+000	0.0000000E+000	87.4266	0.0000000E+000	0.0000000E+000	0.0000000E+000	-87.4266	0.0000000E+000	0.0000000E+000	0.0000000E+000	-2.57342	0.0000000E+000	0.0000000E+000	0.0000000E+000	2.57342	22.2495	2.57342	2.65449e-06
19020.9	1.02141	0.274425	1.05763	-15.0387	5.46047	-0.21047	-0.156408	30.4905	2.0528	1	9	0.010034	0.00948728	0	-9.76889e-05	0.913129	0.245334	0.945512	15.0387	2052.8	7640.47	7911.43	-74.9613	0.0000000E+000	0.0000000E+000	0.0000000E+000	74.9613	0.0000000E+000	0.0000000E+000	0.0000000E+000	-74.9613	0.0000000E+000	0.0000000E+000	0.0000000E+000	-15.0387	0.0000000E+000	0.0000000E+000	0.0000000E+000	15.0387	3.72198	15.0387	3.66617e-06
8683.37	1.05917	0.585115	1.21004	-28.9176	6.18697	-0.210595	-0.187566	31.3249	7.32445	1	9	0.0101951	0.00842546	0	-0.000139471	0.723379	0.399616	0.82642	28.9176	7324.45	13258.6	15147.2	-61.0824	0.0000000E+000	0.0000000E+000	0.0000000E+000	61.0824	0.0000000E+000	0.0000000E+000	0.0000000E+000	-61.0824	0.0000000E+000	0.0000000E+000	0.0000000E+000	-28.9176	0.0000000E+000	0.0000000E+000	0.0000000E+000	28.9176	1.81018	28.9176	-2.05058e-05
3961.2	1.15111	1.15254	1.62892	-45.0355	7.06696	-0.210599	-0.163899	34.8609	17.4521	1	9	0.00903134	0.00554436	0	-0.000176802	0.433825	0.434364	0.613903	45.0355	17452.1	17430.5	24665.7	-44.9645	0.0000000E+000	0.0000000E+000	0.0000000E+000	44.9645	0.0000000E+000	0.0000000E+000	0.0000000E+000	-44.9645	0.0000000E+000	0.0000000E+000	0.0000000E+000	-45.0355	0.0000000E+000	0.0000000E+000	0.0000000E+000	45.0355	0.998761	45.0355	-1.64909e-05
1808.26	1.32568	2.3959	2.7382	-61.0437	8.21197	-0.210393	-0.166713	36.7358	28.1252	1	9	0.00976514	0.00356626	0	-0.00022408	0.17681	0.319549	0.365203	61.0437	28125.2	15562	32143.4	-28.9563	0.0000000E+000	0.0000000E+000	0.0000000E+000	28.9563	0.0000000E+000	0.0000000E+000	0.0000000E+000	-28.9563	0.0000000E+000	0.0000000E+000	0.0000000E+000	-61.0437	0.0000000E+000	0.0000000E+000	0.0000000E+000	61.0437	0.553312	61.0437	-1.85141e-05
825.264	1.51103	4.98203	5.20613	-73.1277	9.38569	-0.210561	-0.0207814	38.7098	35.4489	1	10	0.0097035	0.00186386	0	-0.000242916	0.0557496	0.183813	0.192081	73.1277	35448.9	10751.5	37043.5	-16.8723	0.0000000E+000	0.0000000E+000	0.0000000E+000	16.8723	0.0000000E+000	0.0000000E+000	0.0000000E+000	-16.8723	0.0000000E+000	0.0000000E+000	0.0000000E+000	-73.1277	0.0000000E+000	0.0000000E+000	0.0000000E+000	73.1277	0.303295	73.1277	-1.88123e-06
377.051	1.77439	10.6507	10.7975	-80.5415	10.3087	-0.210412	-0.0207106	39.6315	38.5612	1	10	0.00953719	0.000883276	0	-0.000246225	0.0152195	0.0913547	0.0926138	80.5415	38561.2	6424.2	39092.7	-9.45847	0.0000000E+000	0.0000000E+000	0.0000000E+000	9.45847	0.0000000E+000	0.0000000E+000	0.0000000E+000	-9.45847	0.0000000E+000	0.0000000E+000	0.0000000E+000	-80.5415	0.0000000E+000	0.0000000E+000	0.0000000E+000	80.5415	0.166597	80.5415	-1.97454e-06
172.037	2.75526	22.3232	22.4926	-82.9638	11.2274	-0.210586	-0.022489	41.4422	40.8203	1	10	0.00949448	0.000422116	0	-0.000251304	0.00544609	0.0441243	0.0444591	82.9638	40820.3	5038.29	41130.1	-7.03621	0.0000000E+000	0.0000000E+000	0.0000000E+000	7.03621	0.0000000E+000	0.0000000E+000	0.0000000E+000	-7.03621	0.0000000E+000	0.0000000E+000	0.0000000E+000	-82.9638	0.0000000E+000	0.0000000E+000	0.0000000E+000	82.9638	0.123426	82.9638	-1.90768e-06
78.5176	4.7352	48.4424	48.6733	-84.4171	12.4035	-0.210508	-0.00274308	41.8434	41.4474	1	11	0.00972338	0.000199768	0	-0.000253806	0.00199875	0.0204477	0.0205452	84.4171	41447.4	4051.45	41644.9	-5.58288	0.0000000E+000	0.0000000E+000	0.0000000E+000	5.58288	0.0000000E+000	0.0000000E+000	0.0000000E+000	-5.58288	0.0000000E+000	0.0000000E+000	0.0000000E+000	-84.4171	0.0000000E+000	0.0000000E+000	0.0000000E+000	84.4171	0.0977492	84.4171	-4.39621e-07
35.8372	8.57164	99.8413	100.209	-85.093	13.3321	-0.210371	-0.00279192	44.4812	44.1557	1	11	0.0095155	9.49569e-05	0	-0.000254594	0.000853599	0.00994261	0.00997919	85.093	44155.7	3790.88	44318.2	-4.90696	0.0000000E+000	0.0000000E+000	0.0000000E+000	4.90696	0.0000000E+000	0.0000000E+000	0.0000000E+000	-4.90696	0.0000000E+000	0.0000000E+000	0.0000000E+000	-85.093	0.0000000E+000	0.0000000E+000	0.0000000E+000	85.093	0.0858527	85.093	-4.14347e-07
16.367	16.9391	207.435	208.125	-85.3316	14.469	-0.21044	2.63992e-05	46.8782	46.5676	1	12	0.00933761	4.48653e-05	0	-0.000255245	0.000391059	0.00478886	0.0048048	85.3316	46567.6	3802.72	46722.6	-4.66842	0.0000000E+000	0.0000000E+000	0.0000000E+000	4.66842	0.0000000E+000	0.0000000E+000	0.0000000E+000	-4.66842	0.0000000E+000	0.0000000E+000	0.0000000E+000	-85.3316	0.0000000E+000	0.0000000E+000	0.0000000E+000	85.3316	0.0816601	85.3316	-4.74683e-07
7.46893	57.5002	438.752	442.504	-82.5337	15.2186	-0.210451	-0.000799625	48.5672	47.7471	1	12	0.0095391	2.15571e-05	0	-0.000255239	0.000293654	0.00224071	0.00225987	82.5337	47747.1	6257.44	48155.4	-7.46629	0.0000000E+000	0.0000000E+000	0.0000000E+000	7.46629	0.0000000E+000	0.0000000E+000	0.0000000E+000	-7.46629	0.0000000E+000	0.0000000E+000	0.0000000E+000	-82.5337	0.0000000E+000	0.0000000E+000	0.0000000E+000	82.5337	0.131054	82.5337	2.17288e-07
3.4086	83.2051	931.616	935.325	-84.8963	16.6812	-0.210575	-0.000288153	50.1196	49.723	1	13	0.00946546	1.012e-05	0	-0.000255442	9.51097e-05	0.00106491	0.00106915	84.8963	49723	4440.89	49920.9	-5.10369	0.0000000E+000	0.0000000E+000	0.0000000E+000	5.10369	0.0000000E+000	0.0000000E+000	0.0000000E+000	-5.10369	0.0000000E+000	0.0000000E+000	0.0000000E+000	-84.8963	0.0000000E+000	0.0000000E+000	0.0000000E+000	84.8963	0.0893126	84.8963	-4.53838e-09