File: Data_1mg/2022_01_26 IrOx 1mg  ref309 elect1 bulk_C02.mpt
EC-Lab ASCII FILE
Nb header lines : 52

Chronopotentiometry

Run on channel : 2 (SN 12477)
User :
CE vs. WE compliance from -10 V to 10 V
Electrode connection : standard
Potential control : Ewe
Ewe ctrl range : min = -2.50 V, max = 2.50 V
Safety Limits :
	Do not start on E overload
Acquisition started on : 01/26/2023 12:36:19.187
Loaded Setting File :  C:\Users\grupogalan\Documents\EC-Lab\Data\Scott\_cyclic_pause_cp2hr.mps
Saved on :
	File : 2022_01_26 IrOx 1mg  ref309 elect1 bulk_C02.mpr
	Directory : C:\Users\grupogalan\Documents\EC-Lab\Data\Scott\
	Host : 169.254.104.159
Device : VSP (SN 1176)
Address : USB
EC-Lab for windows v11.46 (software)
Internet server v11.40 (firmware)
Command interpretor v11.40 (firmware)
Electrode material :
Initial state :
Electrolyte :
Comments :
Electrode surface area : 0.000 cm²
Characteristic mass : 0.001 g
Equivalent Weight : 0.000 g/eq.
Density : 0.000 g/cm3
Volume (V) : 0.001 cm³
Cycle Definition : Charge/Discharge alternance
Is                  10.000
unit Is             mA
vs.                 <None>
ts (h:m:s)          2:00:0.0000
EM (V)              pass
dQM                 20.000
unit dQM            mA.h
record              <Ewe>
dEs (mV)            0.00
dts (s)             1.0000
E range min (V)     -2.500
E range max (V)     2.500
I Range             10 mA
Bandwidth           5
goto Ns'            0
nc cycles           0

mode	ox/red	error	control changes	Ns changes	counter inc.	Ns	time/s	control/mA	<Ewe>/V	I/mA	dQ/C	(Q-Qo)/C	half cycle	Q charge/discharge/mA.h	I Range	Energy charge/W.h	Energy discharge/W.h	Capacitance charge/µF	Capacitance discharge/µF	Q discharge/mA.h	Q charge/mA.h	Capacity/mA.h	Efficiency/%	cycle number	P/W
1	1	0	1	0	0	0	1	10	0.374959	10.0014	0.00949926	0.00949926	0	0.00263868	11	9.89399e-07	0.000000000000000E+000	0.000000000000000E+000	0.000000000000000E+000	0.000000000000000E+000	0.00263868	0.00263868	0.0000000E+000	0.000000000000000E+000	0.00375013
1	1	0	1	0	0	0	162	10	0.757854	10.0011	1.61972	1.61972	0	0.449923	11	0.000331625	0.000000000000000E+000	4.2302e+06	0.000000000000000E+000	0.000000000000000E+000	0.449923	0.449923	0.0000000E+000	0.000000000000000E+000	0.00757938
1	1	0	1	0	0	0	323	10	0.772757	10.0012	3.22995	3.22995	0	0.897207	11	0.000674289	0.000000000000000E+000	8.11956e+06	0.000000000000000E+000	0.000000000000000E+000	0.897207	0.897207	0.0000000E+000	0.000000000000000E+000	0.00772853
1	1	0	1	0	0	0	484	10	0.782568	10.0021	4.84017	4.84017	0	1.34449	11	0.0010221	0.000000000000000E+000	1.18746e+07	0.000000000000000E+000	0.000000000000000E+000	1.34449	1.34449	0.0000000E+000	0.000000000000000E+000	0.00782729
1	1	0	1	0	0	0	645	10	0.791068	10.0014	6.45039	6.45039	0	1.79177	11	0.00137415	0.000000000000000E+000	1.55017e+07	0.000000000000000E+000	0.000000000000000E+000	1.79177	1.79177	0.0000000E+000	0.000000000000000E+000	0.00791176
1	1	0	1	0	0	0	806	10	0.799451	10.0014	8.06061	8.06061	0	2.23906	11	0.00172978	0.000000000000000E+000	1.89889e+07	0.000000000000000E+000	0.000000000000000E+000	2.23906	2.23906	0.0000000E+000	0.000000000000000E+000	0.00799565
1	1	0	1	0	0	0	967	10	0.807207	10.0016	9.67082	9.67082	0	2.68634	11	0.00208896	0.000000000000000E+000	2.23733e+07	0.000000000000000E+000	0.000000000000000E+000	2.68634	2.68634	0.0000000E+000	0.000000000000000E+000	0.00807338
1	1	0	1	0	0	0	1128	10	0.814718	10.0012	11.281	11.281	0	3.13362	11	0.00245169	0.000000000000000E+000	2.56528e+07	0.000000000000000E+000	0.000000000000000E+000	3.13362	3.13362	0.0000000E+000	0.000000000000000E+000	0.00814813
1	1	0	1	0	0	0	1289	10	0.822741	10.0019	12.8913	12.8913	0	3.58091	11	0.00281796	0.000000000000000E+000	2.87892e+07	0.000000000000000E+000	0.000000000000000E+000	3.58091	3.58091	0.0000000E+000	0.000000000000000E+000	0.00822901
1	1	0	1	0	0	0	1450	10	0.831089	10.0013	14.5015	14.5015	0	4.02819	11	0.00318785	0.000000000000000E+000	3.17925e+07	0.000000000000000E+000	0.000000000000000E+000	4.02819	4.02819	0.0000000E+000	0.000000000000000E+000	0.00831197
1	1	0	1	0	0	0	1611	10	0.839323	10.0021	16.1117	16.1117	0	4.47547	11	0.00356138	0.000000000000000E+000	3.46963e+07	0.000000000000000E+000	0.000000000000000E+000	4.47547	4.47547	0.0000000E+000	0.000000000000000E+000	0.00839501
1	1	0	1	0	0	0	1772	10	0.84794	10.0015	17.7219	17.7219	0	4.92276	11	0.00393867	0.000000000000000E+000	3.74686e+07	0.000000000000000E+000	0.000000000000000E+000	4.92276	4.92276	0.0000000E+000	0.000000000000000E+000	0.00848067
1	1	0	1	0	0	0	1933	10	0.857317	10.0016	19.3321	19.3321	0	5.37004	11	0.00432004	0.000000000000000E+000	4.00785e+07	0.000000000000000E+000	0.000000000000000E+000	5.37004	5.37004	0.0000000E+000	0.000000000000000E+000	0.0085745
1	1	0	1	0	0	0	2094	10	0.866897	10.0009	20.9424	20.9424	0	5.81732	11	0.00470566	0.000000000000000E+000	4.25711e+07	0.000000000000000E+000	0.000000000000000E+000	5.81732	5.81732	0.0000000E+000	0.000000000000000E+000	0.00866977
1	1	0	1	0	0	0	2255	10	0.87677	10.0014	22.5526	22.5526	0	6.26461	11	0.00509567	0.000000000000000E+000	4.49424e+07	0.000000000000000E+000	0.000000000000000E+000	6.26461	6.26461	0.0000000E+000	0.000000000000000E+000	0.0087689
1	1	0	1	0	0	0	2416	10	0.888058	10.001	24.1628	24.1628	0	6.71189	11	0.00549037	0.000000000000000E+000	4.7092e+07	0.000000000000000E+000	0.000000000000000E+000	6.71189	6.71189	0.0000000E+000	0.000000000000000E+000	0.00888151
1	1	0	1	0	0	0	2577	10	0.899672	10.0014	25.773	25.773	0	7.15917	11	0.00589011	0.000000000000000E+000	4.91184e+07	0.000000000000000E+000	0.000000000000000E+000	7.15917	7.15917	0.0000000E+000	0.000000000000000E+000	0.00899795
1	1	0	1	0	0	0	2738	10	0.911718	10.0023	27.3832	27.3832	0	7.60646	11	0.00629515	0.000000000000000E+000	5.1016e+07	0.000000000000000E+000	0.000000000000000E+000	7.60646	7.60646	0.0000000E+000	0.000000000000000E+000	0.00911929
1	1	0	1	0	0	0	2899	10	0.924742	10.0015	28.9935	28.9935	0	8.05374	11	0.00670577	0.000000000000000E+000	5.27362e+07	0.000000000000000E+000	0.000000000000000E+000	8.05374	8.05374	0.0000000E+000	0.000000000000000E+000	0.00924881
1	1	0	1	0	0	0	3060	10	0.938964	10.0017	30.6037	30.6037	0	8.50103	11	0.00712254	0.000000000000000E+000	5.42614e+07	0.000000000000000E+000	0.000000000000000E+000	8.50103	8.50103	0.0000000E+000	0.000000000000000E+000	0.00939122
1	1	0	1	0	0	0	3221	10	0.955038	10.0009	32.2139	32.2139	0	8.94831	11	0.007546	0.000000000000000E+000	5.55337e+07	0.000000000000000E+000	0.000000000000000E+000	8.94831	8.94831	0.0000000E+000	0.000000000000000E+000	0.0095512
1	1	0	1	0	0	0	3382	10	0.971773	10.0014	33.8241	33.8241	0	9.3956	11	0.00797677	0.000000000000000E+000	5.66745e+07	0.000000000000000E+000	0.000000000000000E+000	9.3956	9.3956	0.0000000E+000	0.000000000000000E+000	0.00971906
1	1	0	1	0	0	0	3543	10	0.990065	10.0007	35.4344	35.4344	0	9.84288	11	0.00841533	0.000000000000000E+000	5.7607e+07	0.000000000000000E+000	0.000000000000000E+000	9.84288	9.84288	0.0000000E+000	0.000000000000000E+000	0.00990131
1	1	0	1	0	0	0	3704	10	1.00938	10.0012	37.0446	37.0446	0	10.2902	11	0.00886233	0.000000000000000E+000	5.83909e+07	0.000000000000000E+000	0.000000000000000E+000	10.2902	10.2902	0.0000000E+000	0.000000000000000E+000	0.010095
1	1	0	1	0	0	0	3865	10	1.03048	10.0007	38.6548	38.6548	0	10.7374	11	0.00931858	0.000000000000000E+000	5.89686e+07	0.000000000000000E+000	0.000000000000000E+000	10.7374	10.7374	0.0000000E+000	0.000000000000000E+000	0.0103055
1	1	0	1	0	0	0	4026	10	1.04921	10.0011	40.265	40.265	0	11.1847	11	0.00978471	0.000000000000000E+000	5.97184e+07	0.000000000000000E+000	0.000000000000000E+000	11.1847	11.1847	0.0000000E+000	0.000000000000000E+000	0.0104932
1	1	0	1	0	0	0	4187	10	1.07822	10.0009	41.8753	41.8753	0	11.632	11	0.0102609	0.000000000000000E+000	5.95447e+07	0.000000000000000E+000	0.000000000000000E+000	11.632	11.632	0.0000000E+000	0.000000000000000E+000	0.0107832
1	1	0	1	0	0	0	4348	10	1.10128	10.0018	43.4855	43.4855	0	12.0793	11	0.0107492	0.000000000000000E+000	5.98711e+07	0.000000000000000E+000	0.000000000000000E+000	12.0793	12.0793	0.0000000E+000	0.000000000000000E+000	0.0110148
1	1	0	1	0	0	0	4509	10	1.13485	10.0009	45.0957	45.0957	0	12.5266	11	0.0112506	0.000000000000000E+000	5.93446e+07	0.000000000000000E+000	0.000000000000000E+000	12.5266	12.5266	0.0000000E+000	0.000000000000000E+000	0.0113495
1	1	0	1	0	0	0	4670	10	1.16658	10.0014	46.7059	46.7059	0	12.9739	11	0.0117655	0.000000000000000E+000	5.90007e+07	0.000000000000000E+000	0.000000000000000E+000	12.9739	12.9739	0.0000000E+000	0.000000000000000E+000	0.0116674
1	1	0	1	0	0	0	4831	10	1.2016	10.0017	48.3161	48.3161	0	13.4212	11	0.0122957	0.000000000000000E+000	5.84486e+07	0.000000000000000E+000	0.000000000000000E+000	13.4212	13.4212	0.0000000E+000	0.000000000000000E+000	0.0120181
1	1	0	1	0	0	0	4992	10	1.2376	10.001	49.9264	49.9264	0	13.8684	11	0.0128414	0.000000000000000E+000	5.78759e+07	0.000000000000000E+000	0.000000000000000E+000	13.8684	13.8684	0.0000000E+000	0.000000000000000E+000	0.0123773
1	1	0	1	0	0	0	5153	10	1.27447	10.0012	51.5366	51.5366	0	14.3157	11	0.0134023	0.000000000000000E+000	5.72941e+07	0.000000000000000E+000	0.000000000000000E+000	14.3157	14.3157	0.0000000E+000	0.000000000000000E+000	0.0127463
1	1	0	1	0	0	0	5314	10	1.30858	10.0012	53.1468	53.1468	0	14.763	11	0.0139794	0.000000000000000E+000	5.69255e+07	0.000000000000000E+000	0.000000000000000E+000	14.763	14.763	0.0000000E+000	0.000000000000000E+000	0.0130873
1	1	0	1	0	0	0	5475	10	1.33319	10.002	54.757	54.757	0	15.2103	11	0.0145733	0.000000000000000E+000	5.71439e+07	0.000000000000000E+000	0.000000000000000E+000	15.2103	15.2103	0.0000000E+000	0.000000000000000E+000	0.0133346
1	1	0	1	0	0	0	5636	10	1.38131	10.0009	56.3673	56.3673	0	15.6576	11	0.0151816	0.000000000000000E+000	5.60118e+07	0.000000000000000E+000	0.000000000000000E+000	15.6576	15.6576	0.0000000E+000	0.000000000000000E+000	0.0138142
1	1	0	1	0	0	0	5797	10	1.41494	10.0012	57.9775	57.9775	0	16.1049	11	0.0158062	0.000000000000000E+000	5.57485e+07	0.000000000000000E+000	0.000000000000000E+000	16.1049	16.1049	0.0000000E+000	0.000000000000000E+000	0.0141511
1	1	0	1	0	0	0	5958	10	1.44799	10.0016	59.5877	59.5877	0	16.5521	11	0.0164453	0.000000000000000E+000	5.55324e+07	0.000000000000000E+000	0.000000000000000E+000	16.5521	16.5521	0.0000000E+000	0.000000000000000E+000	0.0144822
1	1	0	1	0	0	0	6119	10	1.47928	10.0014	61.1979	61.1979	0	16.9994	11	0.0171007	0.000000000000000E+000	5.54166e+07	0.000000000000000E+000	0.000000000000000E+000	16.9994	16.9994	0.0000000E+000	0.000000000000000E+000	0.0147949
1	1	0	1	0	0	0	6280	10	1.52608	10.0017	62.8081	62.8081	0	17.4467	11	0.0177718	0.000000000000000E+000	5.45627e+07	0.000000000000000E+000	0.000000000000000E+000	17.4467	17.4467	0.0000000E+000	0.000000000000000E+000	0.0152633
1	1	0	1	0	0	0	6441	10	1.538	10.0018	64.4184	64.4184	0	17.894	11	0.0184537	0.000000000000000E+000	5.53877e+07	0.000000000000000E+000	0.000000000000000E+000	17.894	17.894	0.0000000E+000	0.000000000000000E+000	0.0153828
1	1	0	1	0	0	0	6602	10	1.55562	10.0019	66.0286	66.0286	0	18.3413	11	0.0191475	0.000000000000000E+000	5.59249e+07	0.000000000000000E+000	0.000000000000000E+000	18.3413	18.3413	0.0000000E+000	0.000000000000000E+000	0.0155592
1	1	0	1	0	0	0	6763	10	1.57894	10.0017	67.6388	67.6388	0	18.7886	11	0.0198509	0.000000000000000E+000	5.61793e+07	0.000000000000000E+000	0.000000000000000E+000	18.7886	18.7886	0.0000000E+000	0.000000000000000E+000	0.0157922
1	1	0	1	0	0	0	6924	10	1.59755	10.0009	69.249	69.249	0	19.2358	11	0.020563	0.000000000000000E+000	5.66412e+07	0.000000000000000E+000	0.000000000000000E+000	19.2358	19.2358	0.0000000E+000	0.000000000000000E+000	0.0159769
1	1	0	1	0	0	0	7085	10	1.63257	10.0014	70.8592	70.8592	0	19.6831	11	0.0212825	0.000000000000000E+000	5.63443e+07	0.000000000000000E+000	0.000000000000000E+000	19.6831	19.6831	0.0000000E+000	0.000000000000000E+000	0.016328
1	1	0	1	0	0	0	7200.05	10	1.62863	10.0015	72.0099	72.0099	0	20.0027	11	0.0218022	0.000000000000000E+000	5.74392e+07	0.000000000000000E+000	0.000000000000000E+000	20.0027	20.0027	0.0000000E+000	0.000000000000000E+000	0.0162887