File: Data_1mg/2022_01_30 CoNx 1mg ref309_set1_03_CP_C02.mpt
EC-Lab ASCII FILE
Nb header lines : 53

Chronopotentiometry

Run on channel : 2 (SN 12477)
User :
CE vs. WE compliance from -10 V to 10 V
Electrode connection : standard
Potential control : Ewe
Ewe ctrl range : min = -2.50 V, max = 2.50 V
Safety Limits :
	Do not start on E overload
Acquisition started on : 01/30/2023 10:32:13.088
Loaded Setting File :  C:\Users\grupogalan\Documents\EC-Lab\Data\Scott\_cyclic_pause_tafel.mps
Saved on :
	File : 2022_01_30 CoNx 1mg ref309_set1_03_CP_C02.mpr
	Directory : C:\Users\grupogalan\Documents\EC-Lab\Data\Scott\
	Host : 169.254.104.159
Device : VSP (SN 1176)
Address : USB
EC-Lab for windows v11.46 (software)
Internet server v11.40 (firmware)
Command interpretor v11.40 (firmware)
Electrode material :
Initial state :
Electrolyte :
Comments :
Electrode surface area : 0.000 cm²
Characteristic mass : 0.001 g
Equivalent Weight : 0.000 g/eq.
Density : 0.000 g/cm3
Volume (V) : 0.001 cm³
Cycle Definition : Charge/Discharge alternance
Ns                  0                   1                   2                   3                   4                   5                   6                   7                   8                   9                   10                  11                  12
Is                  10.000              18.000              32.000              56.000              100.000             178.000             316.000             562.000             1.000               1.778               3.162               5.623               10.000
unit Is             µA                  µA                  µA                  µA                  µA                  µA                  µA                  µA                  mA                  mA                  mA                  mA                  mA
vs.                 <None>              <None>              <None>              <None>              <None>              <None>              <None>              <None>              <None>              <None>              <None>              <None>              <None>
ts (h:m:s)          0:03:0.0000         0:03:0.0000         0:03:0.0000         0:03:0.0000         0:03:0.0000         0:03:0.0000         0:03:0.0000         0:03:0.0000         0:03:0.0000         0:03:0.0000         0:03:0.0000         0:03:0.0000         0:03:0.0000
EM (V)              pass                pass                pass                pass                pass                pass                pass                pass                pass                pass                pass                pass                pass
dQM                 500.000             900.000             1.600               2.800               5.000               8.900               15.800              28.100              50.000              88.900              158.100             281.150             500.000
unit dQM            nA.h                nA.h                µA.h                µA.h                µA.h                µA.h                µA.h                µA.h                µA.h                µA.h                µA.h                µA.h                µA.h
record              <Ewe>               <Ewe>               <Ewe>               <Ewe>               <Ewe>               <Ewe>               <Ewe>               <Ewe>               <Ewe>               <Ewe>               <Ewe>               <Ewe>               <Ewe>
dEs (mV)            0.00                0.00                0.00                0.00                0.00                0.00                0.00                0.00                0.00                0.00                0.00                0.00                0.00
dts (s)             1.0000              1.0000              1.0000              1.0000              1.0000              1.0000              1.0000              1.0000              1.0000              1.0000              1.0000              1.0000              1.0000
E range min (V)     -2.500              -2.500              -2.500              -2.500              -2.500              -2.500              -2.500              -2.500              -2.500              -2.500              -2.500              -2.500              -2.500
E range max (V)     2.500               2.500               2.500               2.500               2.500               2.500               2.500               2.500               2.500               2.500               2.500               2.500               2.500
I Range             10 mA               10 mA               10 mA               10 mA               10 mA               10 mA               10 mA               10 mA               10 mA               10 mA               10 mA               10 mA               10 mA
Bandwidth           5                   5                   5                   5                   5                   5                   5                   5                   5                   5                   5                   5                   5
goto Ns'            0                   0                   0                   0                   0                   0                   0                   0                   0                   0                   0                   0                   0
nc cycles           0                   0                   0                   0                   0                   0                   0                   0                   0                   0                   0                   0                   0

mode	ox/red	error	control changes	Ns changes	counter inc.	Ns	time/s	control/mA	<Ewe>/V	I/mA	dQ/C	(Q-Qo)/C	half cycle	Q charge/discharge/mA.h	I Range	Energy charge/W.h	Energy discharge/W.h	Capacitance charge/µF	Capacitance discharge/µF	Q discharge/mA.h	Q charge/mA.h	Capacity/mA.h	Efficiency/%	cycle number	P/W
1	1	0	1	0	0	0	1694.54	0.01	-0.131956	0.0115803	1.11053e-05	1.11053e-05	0	3.08481e-06	11	4.07061e-10	0.000000000000000E+000	0.000000000000000E+000	0.000000000000000E+000	0.000000000000000E+000	3.08481e-06	3.08481e-06	0.0000000E+000	0.000000000000000E+000	-1.5281e-06
1	1	0	1	0	0	0	1751.54	0.01	-0.109489	0.0111349	0.000677359	0.000677359	0	0.000188155	11	2.09975e-08	0.000000000000000E+000	30149.1	0.000000000000000E+000	0.000000000000000E+000	0.000188155	0.000188155	0.0000000E+000	0.000000000000000E+000	-1.21916e-06
1	1	0	1	0	0	0	1808.54	0.01	-0.119333	0.0118984	0.00134372	0.00134372	0	0.000373255	11	4.20444e-08	0.000000000000000E+000	106451	0.000000000000000E+000	0.000000000000000E+000	0.000373255	0.000373255	0.0000000E+000	0.000000000000000E+000	-1.41988e-06
1	1	0	1	0	0	0	1865.54	0.01	-0.135717	0.0122166	0.00200905	0.00200905	0	0.00055807	11	6.5576e-08	0.000000000000000E+000	534223	0.000000000000000E+000	0.000000000000000E+000	0.00055807	0.00055807	0.0000000E+000	0.000000000000000E+000	-1.658e-06
1	1	0	0	0	0	1	1921.59	0.018	-0.0837547	0.0187063	0.000914809	0.00301792	0	0.00083831	11	9.30473e-08	0.000000000000000E+000	62610.2	0.000000000000000E+000	0.000000000000000E+000	0.00083831	0.00083831	0.0000000E+000	0.000000000000000E+000	-1.56674e-06
1	1	0	0	0	0	1	1978.59	0.018	-0.0692553	0.0191517	0.00200159	0.0041047	0	0.00114019	11	1.15879e-07	0.000000000000000E+000	65464.5	0.000000000000000E+000	0.000000000000000E+000	0.00114019	0.00114019	0.0000000E+000	0.000000000000000E+000	-1.32636e-06
1	1	0	0	0	0	1	2035.59	0.018	-0.0611113	0.0188972	0.00308884	0.00519195	0	0.00144221	11	1.35429e-07	0.000000000000000E+000	73285.9	0.000000000000000E+000	0.000000000000000E+000	0.00144221	0.00144221	0.0000000E+000	0.000000000000000E+000	-1.15483e-06
1	1	0	1	0	0	2	2091.59	0.032	0.0485015	0.0334674	0.00126275	0.0067979	0	0.00188831	11	1.48733e-07	0.000000000000000E+000	37670.3	0.000000000000000E+000	0.000000000000000E+000	0.00188831	0.00188831	0.0000000E+000	0.000000000000000E+000	1.62322e-06
1	1	0	1	0	0	2	2148.59	0.032	0.118075	0.033531	0.00315596	0.0086911	0	0.00241419	11	1.93884e-07	0.000000000000000E+000	34760.1	0.000000000000000E+000	0.000000000000000E+000	0.00241419	0.00241419	0.0000000E+000	0.000000000000000E+000	3.95916e-06
1	1	0	1	0	0	2	2205.59	0.032	0.168599	0.0333401	0.00504883	0.010584	0	0.00293999	11	2.70167e-07	0.000000000000000E+000	35214.8	0.000000000000000E+000	0.000000000000000E+000	0.00293999	0.00293999	0.0000000E+000	0.000000000000000E+000	5.6211e-06
1	1	0	0	0	0	3	2261.59	0.056	0.301595	0.0576449	0.00161367	0.0131274	0	0.0036465	11	4.38597e-07	0.000000000000000E+000	30278.8	0.000000000000000E+000	0.000000000000000E+000	0.0036465	0.0036465	0.0000000E+000	0.000000000000000E+000	1.73854e-05
1	1	0	0	0	0	3	2318.59	0.056	0.363149	0.0580903	0.00489855	0.0164123	0	0.00455897	11	7.46945e-07	0.000000000000000E+000	33149.1	0.000000000000000E+000	0.000000000000000E+000	0.00455897	0.00455897	0.0000000E+000	0.000000000000000E+000	2.10955e-05
1	1	0	0	0	0	3	2375.59	0.056	0.390599	0.0578994	0.008183	0.0196967	0	0.00547132	11	1.09229e-06	0.000000000000000E+000	37693.1	0.000000000000000E+000	0.000000000000000E+000	0.00547132	0.00547132	0.0000000E+000	0.000000000000000E+000	2.26155e-05
1	1	0	1	0	0	4	2431.59	0.1	0.477976	0.101674	0.00182608	0.0237127	0	0.00658686	11	1.57118e-06	0.000000000000000E+000	38877.6	0.000000000000000E+000	0.000000000000000E+000	0.00658686	0.00658686	0.0000000E+000	0.000000000000000E+000	4.85975e-05
1	1	0	1	0	0	4	2488.59	0.1	0.513861	0.100974	0.0076091	0.0294957	0	0.00819326	11	2.37185e-06	0.000000000000000E+000	45671.9	0.000000000000000E+000	0.000000000000000E+000	0.00819326	0.00819326	0.0000000E+000	0.000000000000000E+000	5.18864e-05
1	1	0	1	0	0	4	2545.59	0.1	0.537217	0.101737	0.0133925	0.0352791	0	0.00979976	11	3.21719e-06	0.000000000000000E+000	52720.5	0.000000000000000E+000	0.000000000000000E+000	0.00979976	0.00979976	0.0000000E+000	0.000000000000000E+000	5.46549e-05
1	1	0	0	0	0	5	2601.59	0.178	0.608324	0.180123	0.00143432	0.0415836	0	0.011551	11	4.196e-06	0.000000000000000E+000	56172.8	0.000000000000000E+000	0.000000000000000E+000	0.011551	0.011551	0.0000000E+000	0.000000000000000E+000	0.000109573
1	1	0	0	0	0	5	2658.59	0.178	0.635604	0.179233	0.0116545	0.0518038	0	0.01439	11	5.97018e-06	0.000000000000000E+000	67491.5	0.000000000000000E+000	0.000000000000000E+000	0.01439	0.01439	0.0000000E+000	0.000000000000000E+000	0.000113921
1	1	0	0	0	0	5	2715.59	0.178	0.646954	0.179805	0.0218742	0.0620235	0	0.0172287	11	7.79268e-06	0.000000000000000E+000	79628.5	0.000000000000000E+000	0.000000000000000E+000	0.0172287	0.0172287	0.0000000E+000	0.000000000000000E+000	0.000116326
1	1	0	0	0	0	5	2772.59	0.178	0.653481	0.178914	0.0320945	0.0722438	0	0.0200677	11	9.63981e-06	0.000000000000000E+000	91979.1	0.000000000000000E+000	0.000000000000000E+000	0.0200677	0.0200677	0.0000000E+000	0.000000000000000E+000	0.000116917
1	1	0	1	0	0	6	2828.59	0.316	0.702194	0.317554	0.0174581	0.0898812	0	0.024967	11	1.30643e-05	0.000000000000000E+000	107752	0.000000000000000E+000	0.000000000000000E+000	0.024967	0.024967	0.0000000E+000	0.000000000000000E+000	0.000222984
1	1	0	1	0	0	6	2885.59	0.316	0.705265	0.317236	0.0355507	0.107974	0	0.0299927	11	1.66018e-05	0.000000000000000E+000	128967	0.000000000000000E+000	0.000000000000000E+000	0.0299927	0.0299927	0.0000000E+000	0.000000000000000E+000	0.000223735
1	1	0	1	0	0	6	2942.59	0.316	0.707353	0.317363	0.0536434	0.126067	0	0.0350185	11	2.01519e-05	0.000000000000000E+000	150203	0.000000000000000E+000	0.000000000000000E+000	0.0350185	0.0350185	0.0000000E+000	0.000000000000000E+000	0.000224488
1	1	0	0	0	0	7	2998.59	0.562	0.750941	0.56321	0.0253608	0.154919	0	0.0430331	11	2.61174e-05	0.000000000000000E+000	175467	0.000000000000000E+000	0.000000000000000E+000	0.0430331	0.0430331	0.0000000E+000	0.000000000000000E+000	0.000422938
1	1	0	0	0	0	7	3055.59	0.562	0.753738	0.563401	0.0574842	0.187042	0	0.0519562	11	3.28321e-05	0.000000000000000E+000	211182	0.000000000000000E+000	0.000000000000000E+000	0.0519562	0.0519562	0.0000000E+000	0.000000000000000E+000	0.000424657
1	1	0	0	0	0	7	3112.59	0.562	0.755532	0.56321	0.089607	0.219165	0	0.0608792	11	3.95655e-05	0.000000000000000E+000	246950	0.000000000000000E+000	0.000000000000000E+000	0.0608792	0.0608792	0.0000000E+000	0.000000000000000E+000	0.000425523
1	1	0	1	0	0	8	3168.59	1	0.800598	1.00076	0.0350475	0.266048	0	0.0739022	11	4.98271e-05	0.000000000000000E+000	285289	0.000000000000000E+000	0.000000000000000E+000	0.0739022	0.0739022	0.0000000E+000	0.000000000000000E+000	0.000801207
1	1	0	1	0	0	8	3225.59	1	0.804309	1.00152	0.0921246	0.323125	0	0.0897569	11	6.25514e-05	0.000000000000000E+000	345121	0.000000000000000E+000	0.000000000000000E+000	0.0897569	0.0897569	0.0000000E+000	0.000000000000000E+000	0.000805535
1	1	0	1	0	0	8	3282.59	1	0.806888	1.00197	0.149202	0.380202	0	0.105612	11	7.53236e-05	0.000000000000000E+000	404969	0.000000000000000E+000	0.000000000000000E+000	0.105612	0.105612	0.0000000E+000	0.000000000000000E+000	0.000808477
1	1	0	0	0	0	9	3338.59	1.778	0.854063	1.77877	0.0444715	0.455717	0	0.126588	11	9.28243e-05	0.000000000000000E+000	462178	0.000000000000000E+000	0.000000000000000E+000	0.126588	0.126588	0.0000000E+000	0.000000000000000E+000	0.00151918
1	1	0	0	0	0	9	3395.59	1.778	0.858655	1.77858	0.145867	0.557112	0	0.154753	11	0.000116949	0.000000000000000E+000	562392	0.000000000000000E+000	0.000000000000000E+000	0.154753	0.154753	0.0000000E+000	0.000000000000000E+000	0.00152719
1	1	0	0	0	0	9	3452.59	1.778	0.860776	1.77915	0.247262	0.658508	0	0.182919	11	0.000141168	0.000000000000000E+000	663329	0.000000000000000E+000	0.000000000000000E+000	0.182919	0.182919	0.0000000E+000	0.000000000000000E+000	0.00153145
1	1	0	1	0	0	10	3508.59	3.162	0.919717	3.16332	0.0474475	0.778889	0	0.216358	11	0.000170704	0.000000000000000E+000	740618	0.000000000000000E+000	0.000000000000000E+000	0.216358	0.216358	0.0000000E+000	0.000000000000000E+000	0.00290936
1	1	0	1	0	0	10	3565.59	3.162	0.943871	3.16293	0.227749	0.95919	0	0.266442	11	0.000217401	0.000000000000000E+000	891583	0.000000000000000E+000	0.000000000000000E+000	0.266442	0.266442	0.0000000E+000	0.000000000000000E+000	0.0029854
1	1	0	1	0	0	10	3622.59	3.162	0.96129	3.16325	0.40805	1.13949	0	0.316525	11	0.00026515	0.000000000000000E+000	1.0423e+06	0.000000000000000E+000	0.000000000000000E+000	0.316525	0.316525	0.0000000E+000	0.000000000000000E+000	0.0030408
1	1	0	0	0	0	11	3678.59	5.623	1.08326	5.62396	0.0281197	1.32893	0	0.369148	11	0.000316921	0.000000000000000E+000	1.09358e+06	0.000000000000000E+000	0.000000000000000E+000	0.369148	0.369148	0.0000000E+000	0.000000000000000E+000	0.00609219
1	1	0	0	0	0	11	3735.59	5.623	1.13442	5.62402	0.348689	1.6495	0	0.458195	11	0.000416224	0.000000000000000E+000	1.30253e+06	0.000000000000000E+000	0.000000000000000E+000	0.458195	0.458195	0.0000000E+000	0.000000000000000E+000	0.00638002
1	1	0	0	0	0	11	3792.59	5.623	1.15393	5.62396	0.669259	1.97007	0	0.547243	11	0.00051821	0.000000000000000E+000	1.53207e+06	0.000000000000000E+000	0.000000000000000E+000	0.547243	0.547243	0.0000000E+000	0.000000000000000E+000	0.00648967
1	1	0	0	0	0	11	3849.59	5.623	1.17221	5.62364	0.989829	2.29064	0	0.63629	11	0.00062204	0.000000000000000E+000	1.75641e+06	0.000000000000000E+000	0.000000000000000E+000	0.63629	0.63629	0.0000000E+000	0.000000000000000E+000	0.00659208
1	1	0	1	0	0	12	3905.59	10	1.41462	10.0018	0.520073	2.83321	0	0.787004	11	0.000828716	0.000000000000000E+000	1.83192e+06	0.000000000000000E+000	0.000000000000000E+000	0.787004	0.787004	0.0000000E+000	0.000000000000000E+000	0.0141488
1	1	0	1	0	0	12	3962.59	10	1.49289	10.0014	1.09016	3.40329	0	0.94536	11	0.0010594	0.000000000000000E+000	2.09453e+06	0.000000000000000E+000	0.000000000000000E+000	0.94536	0.94536	0.0000000E+000	0.000000000000000E+000	0.014931
1	1	0	1	0	0	12	4019.59	10	1.5665	10.0007	1.66024	3.97338	0	1.10372	11	0.00130214	0.000000000000000E+000	2.3394e+06	0.000000000000000E+000	0.000000000000000E+000	1.10372	1.10372	0.0000000E+000	0.000000000000000E+000	0.0156662
1	1	0	1	0	0	12	4033.59	10	1.58234	10.0021	1.80026	4.1134	0	1.14261	11	0.00136341	0.000000000000000E+000	2.39946e+06	0.000000000000000E+000	0.000000000000000E+000	1.14261	1.14261	0.0000000E+000	0.000000000000000E+000	0.0158267