File: Data_1mg/2022_01_25 Co30Ni60Fe10Nx 1mg  ref309 elect1 cv and bulk_03_CP_C02.mpt
EC-Lab ASCII FILE
Nb header lines : 52

Chronopotentiometry

Run on channel : 2 (SN 12477)
User :
CE vs. WE compliance from -10 V to 10 V
Electrode connection : standard
Potential control : Ewe
Ewe ctrl range : min = -2.50 V, max = 2.50 V
Safety Limits :
	Do not start on E overload
Acquisition started on : 01/25/2023 16:18:45.043
Loaded Setting File :  C:\Users\grupogalan\Documents\EC-Lab\Data\Scott\_cyclic_pause_cp2hr.mps
Saved on :
	File : 2022_01_25 Co30Ni60Fe10Nx 1mg  ref309 elect1 cv and bulk_03_CP_C02.mpr
	Directory : C:\Users\grupogalan\Documents\EC-Lab\Data\Scott\
	Host : 169.254.104.159
Device : VSP (SN 1176)
Address : USB
EC-Lab for windows v11.46 (software)
Internet server v11.40 (firmware)
Command interpretor v11.40 (firmware)
Electrode material :
Initial state :
Electrolyte :
Comments :
Electrode surface area : 0.000 cm²
Characteristic mass : 0.001 g
Equivalent Weight : 0.000 g/eq.
Density : 0.000 g/cm3
Volume (V) : 0.001 cm³
Cycle Definition : Charge/Discharge alternance
Is                  10.000
unit Is             mA
vs.                 <None>
ts (h:m:s)          2:00:0.0000
EM (V)              pass
dQM                 20.000
unit dQM            mA.h
record              <Ewe>
dEs (mV)            0.00
dts (s)             1.0000
E range min (V)     -2.500
E range max (V)     2.500
I Range             10 mA
Bandwidth           5
goto Ns'            0
nc cycles           0

mode	ox/red	error	control changes	Ns changes	counter inc.	Ns	time/s	control/mA	<Ewe>/V	I/mA	dQ/C	(Q-Qo)/C	half cycle	Q charge/discharge/mA.h	I Range	Energy charge/W.h	Energy discharge/W.h	Capacitance charge/µF	Capacitance discharge/µF	Q discharge/mA.h	Q charge/mA.h	Capacity/mA.h	Efficiency/%	cycle number	P/W
1	1	0	1	0	0	0	905.592	10	0.895718	10.0016	0.00947732	0.00947732	0	0.00263259	11	2.35806e-06	0.000000000000000E+000	0.000000000000000E+000	0.000000000000000E+000	0.000000000000000E+000	0.00263259	0.00263259	0.0000000E+000	0.000000000000000E+000	0.00895857
1	1	0	1	0	0	0	1064.59	10	0.934976	10.0014	1.59971	1.59971	0	0.444363	11	0.0004105	0.000000000000000E+000	4.07485e+07	0.000000000000000E+000	0.000000000000000E+000	0.444363	0.444363	0.0000000E+000	0.000000000000000E+000	0.0093511
1	1	0	1	0	0	0	1223.59	10	0.957741	10.0012	3.18993	3.18993	0	0.886092	11	0.000828472	0.000000000000000E+000	5.14309e+07	0.000000000000000E+000	0.000000000000000E+000	0.886092	0.886092	0.0000000E+000	0.000000000000000E+000	0.0095786
1	1	0	1	0	0	0	1382.59	10	0.983325	10.001	4.78016	4.78016	0	1.32782	11	0.00125713	0.000000000000000E+000	5.45635e+07	0.000000000000000E+000	0.000000000000000E+000	1.32782	1.32782	0.0000000E+000	0.000000000000000E+000	0.00983428
1	1	0	1	0	0	0	1541.59	10	1.00877	10.0006	6.37038	6.37038	0	1.76955	11	0.00169712	0.000000000000000E+000	5.63477e+07	0.000000000000000E+000	0.000000000000000E+000	1.76955	1.76955	0.0000000E+000	0.000000000000000E+000	0.0100883
1	1	0	1	0	0	0	1700.59	10	1.03349	10.0019	7.96061	7.96061	0	2.21128	11	0.00214833	0.000000000000000E+000	5.77802e+07	0.000000000000000E+000	0.000000000000000E+000	2.21128	2.21128	0.0000000E+000	0.000000000000000E+000	0.0103369
1	1	0	1	0	0	0	1859.59	10	1.05513	10.0009	9.55083	9.55083	0	2.65301	11	0.00260983	0.000000000000000E+000	5.9912e+07	0.000000000000000E+000	0.000000000000000E+000	2.65301	2.65301	0.0000000E+000	0.000000000000000E+000	0.0105522
1	1	0	1	0	0	0	2018.59	10	1.07333	10.0014	11.1411	11.1411	0	3.09474	11	0.00308	0.000000000000000E+000	6.27261e+07	0.000000000000000E+000	0.000000000000000E+000	3.09474	3.09474	0.0000000E+000	0.000000000000000E+000	0.0107348
1	1	0	1	0	0	0	2177.59	10	1.09121	10.0016	12.7313	12.7313	0	3.53647	11	0.00355807	0.000000000000000E+000	6.51228e+07	0.000000000000000E+000	0.000000000000000E+000	3.53647	3.53647	0.0000000E+000	0.000000000000000E+000	0.0109138
1	1	0	1	0	0	0	2336.59	10	1.11279	10.0019	14.3215	14.3215	0	3.9782	11	0.0040446	0.000000000000000E+000	6.59762e+07	0.000000000000000E+000	0.000000000000000E+000	3.9782	3.9782	0.0000000E+000	0.000000000000000E+000	0.01113
1	1	0	1	0	0	0	2495.59	10	1.14814	10.0016	15.9117	15.9117	0	4.41993	11	0.00454329	0.000000000000000E+000	6.30352e+07	0.000000000000000E+000	0.000000000000000E+000	4.41993	4.41993	0.0000000E+000	0.000000000000000E+000	0.0114833
1	1	0	1	0	0	0	2654.59	10	1.19761	10.0012	17.502	17.502	0	4.86166	11	0.00506157	0.000000000000000E+000	5.79739e+07	0.000000000000000E+000	0.000000000000000E+000	4.86166	4.86166	0.0000000E+000	0.000000000000000E+000	0.0119775
1	1	0	1	0	0	0	2813.59	10	1.23118	10.001	19.0922	19.0922	0	5.30339	11	0.00559862	0.000000000000000E+000	5.69137e+07	0.000000000000000E+000	0.000000000000000E+000	5.30339	5.30339	0.0000000E+000	0.000000000000000E+000	0.012313
1	1	0	1	0	0	0	2972.59	10	1.258	10.0012	20.6824	20.6824	0	5.74512	11	0.00614869	0.000000000000000E+000	5.7089e+07	0.000000000000000E+000	0.000000000000000E+000	5.74512	5.74512	0.0000000E+000	0.000000000000000E+000	0.0125816
1	1	0	1	0	0	0	3131.59	10	1.27968	10.0017	22.2726	22.2726	0	6.18685	11	0.00670938	0.000000000000000E+000	5.8008e+07	0.000000000000000E+000	0.000000000000000E+000	6.18685	6.18685	0.0000000E+000	0.000000000000000E+000	0.0127989
1	1	0	1	0	0	0	3290.59	10	1.29949	10.0016	23.8629	23.8629	0	6.62858	11	0.00727915	0.000000000000000E+000	5.91005e+07	0.000000000000000E+000	0.000000000000000E+000	6.62858	6.62858	0.0000000E+000	0.000000000000000E+000	0.0129969
1	1	0	1	0	0	0	3449.59	10	1.31755	10.0016	25.4531	25.4531	0	7.07031	11	0.00785715	0.000000000000000E+000	6.0339e+07	0.000000000000000E+000	0.000000000000000E+000	7.07031	7.07031	0.0000000E+000	0.000000000000000E+000	0.0131777
1	1	0	1	0	0	0	3608.59	10	1.33385	10.0013	27.0433	27.0433	0	7.51204	11	0.00844274	0.000000000000000E+000	6.17246e+07	0.000000000000000E+000	0.000000000000000E+000	7.51204	7.51204	0.0000000E+000	0.000000000000000E+000	0.0133402
1	1	0	1	0	0	0	3767.59	10	1.34982	10.0012	28.6336	28.6336	0	7.95377	11	0.00903557	0.000000000000000E+000	6.30556e+07	0.000000000000000E+000	0.000000000000000E+000	7.95377	7.95377	0.0000000E+000	0.000000000000000E+000	0.0134999
1	1	0	1	0	0	0	3926.59	10	1.36728	10.0017	30.2238	30.2238	0	8.3955	11	0.0096356	0.000000000000000E+000	6.40923e+07	0.000000000000000E+000	0.000000000000000E+000	8.3955	8.3955	0.0000000E+000	0.000000000000000E+000	0.0136751
1	1	0	1	0	0	0	4085.59	10	1.38314	10.0014	31.814	31.814	0	8.83723	11	0.0102431	0.000000000000000E+000	6.52703e+07	0.000000000000000E+000	0.000000000000000E+000	8.83723	8.83723	0.0000000E+000	0.000000000000000E+000	0.0138334
1	1	0	1	0	0	0	4244.59	10	1.40251	10.0011	33.4043	33.4043	0	9.27896	11	0.0108585	0.000000000000000E+000	6.59129e+07	0.000000000000000E+000	0.000000000000000E+000	9.27896	9.27896	0.0000000E+000	0.000000000000000E+000	0.0140267
1	1	0	1	0	0	0	4403.59	10	1.42516	10.0021	34.9945	34.9945	0	9.72069	11	0.0114829	0.000000000000000E+000	6.60963e+07	0.000000000000000E+000	0.000000000000000E+000	9.72069	9.72069	0.0000000E+000	0.000000000000000E+000	0.0142547
1	1	0	1	0	0	0	4562.59	10	1.44834	10.0018	36.5847	36.5847	0	10.1624	11	0.0121174	0.000000000000000E+000	6.62018e+07	0.000000000000000E+000	0.000000000000000E+000	10.1624	10.1624	0.0000000E+000	0.000000000000000E+000	0.014486
1	1	0	1	0	0	0	4721.59	10	1.47915	10.001	38.1749	38.1749	0	10.6041	11	0.0127638	0.000000000000000E+000	6.54314e+07	0.000000000000000E+000	0.000000000000000E+000	10.6041	10.6041	0.0000000E+000	0.000000000000000E+000	0.014793
1	1	0	1	0	0	0	4880.59	10	1.51466	10.0011	39.7652	39.7652	0	11.0459	11	0.0134248	0.000000000000000E+000	6.42471e+07	0.000000000000000E+000	0.000000000000000E+000	11.0459	11.0459	0.0000000E+000	0.000000000000000E+000	0.0151483
1	1	0	1	0	0	0	5039.59	10	1.55755	10.002	41.3554	41.3554	0	11.4876	11	0.0141032	0.000000000000000E+000	6.24861e+07	0.000000000000000E+000	0.000000000000000E+000	11.4876	11.4876	0.0000000E+000	0.000000000000000E+000	0.0155786
1	1	0	1	0	0	0	5198.59	10	1.60466	10.0006	42.9456	42.9456	0	11.9293	11	0.0148016	0.000000000000000E+000	6.0577e+07	0.000000000000000E+000	0.000000000000000E+000	11.9293	11.9293	0.0000000E+000	0.000000000000000E+000	0.0160476
1	1	0	1	0	0	0	5357.59	10	1.6496	10.0013	44.5359	44.5359	0	12.3711	11	0.0155209	0.000000000000000E+000	5.90751e+07	0.000000000000000E+000	0.000000000000000E+000	12.3711	12.3711	0.0000000E+000	0.000000000000000E+000	0.0164982
1	1	0	1	0	0	0	5516.59	10	1.68561	10.002	46.1261	46.1261	0	12.8128	11	0.0162583	0.000000000000000E+000	5.83957e+07	0.000000000000000E+000	0.000000000000000E+000	12.8128	12.8128	0.0000000E+000	0.000000000000000E+000	0.0168594
1	1	0	1	0	0	0	5675.59	10	1.71132	10.0014	47.7163	47.7163	0	13.2545	11	0.0170093	0.000000000000000E+000	5.85042e+07	0.000000000000000E+000	0.000000000000000E+000	13.2545	13.2545	0.0000000E+000	0.000000000000000E+000	0.0171157
1	1	0	1	0	0	0	5834.59	10	1.73527	10.0016	49.3065	49.3065	0	13.6963	11	0.0177709	0.000000000000000E+000	5.87298e+07	0.000000000000000E+000	0.000000000000000E+000	13.6963	13.6963	0.0000000E+000	0.000000000000000E+000	0.0173554
1	1	0	1	0	0	0	5993.59	10	1.76771	10.0012	50.8968	50.8968	0	14.138	11	0.0185439	0.000000000000000E+000	5.83686e+07	0.000000000000000E+000	0.000000000000000E+000	14.138	14.138	0.0000000E+000	0.000000000000000E+000	0.0176793
1	1	0	1	0	0	0	6152.59	10	1.8066	10.0011	52.487	52.487	0	14.5797	11	0.0193329	0.000000000000000E+000	5.76223e+07	0.000000000000000E+000	0.000000000000000E+000	14.5797	14.5797	0.0000000E+000	0.000000000000000E+000	0.018068
1	1	0	1	0	0	0	6311.59	10	1.84514	10.0014	54.0772	54.0772	0	15.0215	11	0.0201397	0.000000000000000E+000	5.69583e+07	0.000000000000000E+000	0.000000000000000E+000	15.0215	15.0215	0.0000000E+000	0.000000000000000E+000	0.018454
1	1	0	1	0	0	0	6470.59	10	1.87506	10.0014	55.6675	55.6675	0	15.4632	11	0.0209618	0.000000000000000E+000	5.68418e+07	0.000000000000000E+000	0.000000000000000E+000	15.4632	15.4632	0.0000000E+000	0.000000000000000E+000	0.0187533
1	1	0	1	0	0	0	6629.59	10	1.91233	10.0015	57.2577	57.2577	0	15.9049	11	0.0217973	0.000000000000000E+000	5.63219e+07	0.000000000000000E+000	0.000000000000000E+000	15.9049	15.9049	0.0000000E+000	0.000000000000000E+000	0.0191262
1	1	0	1	0	0	0	6788.59	10	1.95827	10.0012	58.8479	58.8479	0	16.3466	11	0.0226517	0.000000000000000E+000	5.53838e+07	0.000000000000000E+000	0.000000000000000E+000	16.3466	16.3466	0.0000000E+000	0.000000000000000E+000	0.0195851
1	1	0	1	0	0	0	6947.59	10	2.07322	10.0017	60.4381	60.4381	0	16.7884	11	0.0235387	0.000000000000000E+000	5.13273e+07	0.000000000000000E+000	0.000000000000000E+000	16.7884	16.7884	0.0000000E+000	0.000000000000000E+000	0.0207357
1	1	0	1	0	0	0	7106.59	10	2.24946	10.002	62.0284	62.0284	0	17.2301	11	0.0244915	0.000000000000000E+000	4.58199e+07	0.000000000000000E+000	0.000000000000000E+000	17.2301	17.2301	0.0000000E+000	0.000000000000000E+000	0.0224991
1	1	0	1	0	0	0	7265.59	10	2.43572	10.0016	63.6186	63.6186	0	17.6718	11	0.0255244	0.000000000000000E+000	4.13108e+07	0.000000000000000E+000	0.000000000000000E+000	17.6718	17.6718	0.0000000E+000	0.000000000000000E+000	0.024361
1	1	0	1	0	0	0	7424.59	10	2.66861	10.0016	65.2088	65.2088	0	18.1136	11	0.026651	0.000000000000000E+000	3.67811e+07	0.000000000000000E+000	0.000000000000000E+000	18.1136	18.1136	0.0000000E+000	0.000000000000000E+000	0.0266902
1	1	0	1	0	0	0	7583.59	10	2.92669	10.0008	66.7991	66.7991	0	18.5553	11	0.027886	0.000000000000000E+000	3.28901e+07	0.000000000000000E+000	0.000000000000000E+000	18.5553	18.5553	0.0000000E+000	0.000000000000000E+000	0.0292693
1	1	0	1	0	0	0	7742.59	10	3.20081	10.0009	68.3893	68.3893	0	18.997	11	0.0292395	0.000000000000000E+000	2.96688e+07	0.000000000000000E+000	0.000000000000000E+000	18.997	18.997	0.0000000E+000	0.000000000000000E+000	0.032011
1	1	0	1	0	0	0	7901.59	10	3.51176	10.0011	69.9795	69.9795	0	19.4388	11	0.03072	0.000000000000000E+000	2.67502e+07	0.000000000000000E+000	0.000000000000000E+000	19.4388	19.4388	0.0000000E+000	0.000000000000000E+000	0.0351215
1	1	0	1	0	0	0	7965.68	10	3.649	10.0017	70.6205	70.6205	0	19.6168	11	0.0313576	0.000000000000000E+000	2.56496e+07	0.000000000000000E+000	0.000000000000000E+000	19.6168	19.6168	0.0000000E+000	0.000000000000000E+000	0.0364962