File: Data_1mg/2022_01_27 Ni60Co30Fe10Ox 1mg ref309_bulk_C02.mpt
EC-Lab ASCII FILE
Nb header lines : 52

Chronopotentiometry

Run on channel : 2 (SN 12477)
User :
CE vs. WE compliance from -10 V to 10 V
Electrode connection : standard
Potential control : Ewe
Ewe ctrl range : min = -2.50 V, max = 2.50 V
Safety Limits :
	Do not start on E overload
Acquisition started on : 01/27/2023 12:25:52.494
Loaded Setting File :  C:\Users\grupogalan\Documents\EC-Lab\Data\Scott\_cyclic_pause_cp2hr.mps
Saved on :
	File : 2022_01_27 Ni60Co30Fe10Ox 1mg ref309_bulk_C02.mpr
	Directory : C:\Users\grupogalan\Documents\EC-Lab\Data\Scott\
	Host : 169.254.104.159
Device : VSP (SN 1176)
Address : USB
EC-Lab for windows v11.46 (software)
Internet server v11.40 (firmware)
Command interpretor v11.40 (firmware)
Electrode material :
Initial state :
Electrolyte :
Comments :
Electrode surface area : 0.000 cm²
Characteristic mass : 0.001 g
Equivalent Weight : 0.000 g/eq.
Density : 0.000 g/cm3
Volume (V) : 0.001 cm³
Cycle Definition : Charge/Discharge alternance
Is                  10.000
unit Is             mA
vs.                 <None>
ts (h:m:s)          2:00:0.0000
EM (V)              pass
dQM                 20.000
unit dQM            mA.h
record              <Ewe>
dEs (mV)            0.00
dts (s)             1.0000
E range min (V)     -2.500
E range max (V)     2.500
I Range             10 mA
Bandwidth           5
goto Ns'            0
nc cycles           0

mode	ox/red	error	control changes	Ns changes	counter inc.	Ns	time/s	control/mA	<Ewe>/V	I/mA	dQ/C	(Q-Qo)/C	half cycle	Q charge/discharge/mA.h	I Range	Energy charge/W.h	Energy discharge/W.h	Capacitance charge/µF	Capacitance discharge/µF	Q discharge/mA.h	Q charge/mA.h	Capacity/mA.h	Efficiency/%	cycle number	P/W
1	1	0	1	0	0	0	1	10	4.83599	10.0012	0.00949916	0.00949916	0	0.00263866	11	1.27605e-05	0.000000000000000E+000	0.000000000000000E+000	0.000000000000000E+000	0.000000000000000E+000	0.00263866	0.00263866	0.0000000E+000	0.000000000000000E+000	0.0483656
1	1	0	1	0	0	0	2	10	4.89793	10.0009	0.0195005	0.0195005	0	0.00541681	11	2.63677e-05	0.000000000000000E+000	314847	0.000000000000000E+000	0.000000000000000E+000	0.00541681	0.00541681	0.0000000E+000	0.000000000000000E+000	0.0489835
1	1	0	1	0	0	0	3	10	4.90105	10.0017	0.0295019	0.0295019	0	0.00819497	11	3.99837e-05	0.000000000000000E+000	453469	0.000000000000000E+000	0.000000000000000E+000	0.00819497	0.00819497	0.0000000E+000	0.000000000000000E+000	0.0490188
1	1	0	1	0	0	0	4	10	4.90264	10.0011	0.0395033	0.0395033	0	0.0109731	11	5.3604e-05	0.000000000000000E+000	592712	0.000000000000000E+000	0.000000000000000E+000	0.0109731	0.0109731	0.0000000E+000	0.000000000000000E+000	0.0490319
1	1	0	1	0	0	0	5	10	4.90478	10.0018	0.0495047	0.0495047	0	0.0137513	11	6.72304e-05	0.000000000000000E+000	719656	0.000000000000000E+000	0.000000000000000E+000	0.0137513	0.0137513	0.0000000E+000	0.000000000000000E+000	0.0490567
1	1	0	1	0	0	0	6	10	4.90703	10.0012	0.0595062	0.0595062	0	0.0165295	11	8.08629e-05	0.000000000000000E+000	837703	0.000000000000000E+000	0.000000000000000E+000	0.0165295	0.0165295	0.0000000E+000	0.000000000000000E+000	0.0490764
1	1	0	1	0	0	0	7	10	4.9104	10.0014	0.0695076	0.0695076	0	0.0193077	11	9.45049e-05	0.000000000000000E+000	934135	0.000000000000000E+000	0.000000000000000E+000	0.0193077	0.0193077	0.0000000E+000	0.000000000000000E+000	0.0491107
1	1	0	1	0	0	0	8	10	4.91124	10.0012	0.079509	0.079509	0	0.0220858	11	0.000108149	0.000000000000000E+000	1.05665e+06	0.000000000000000E+000	0.000000000000000E+000	0.0220858	0.0220858	0.0000000E+000	0.000000000000000E+000	0.0491185
1	1	0	1	0	0	0	9	10	4.91393	10.0014	0.0895104	0.0895104	0	0.024864	11	0.000121801	0.000000000000000E+000	1.14854e+06	0.000000000000000E+000	0.000000000000000E+000	0.024864	0.024864	0.0000000E+000	0.000000000000000E+000	0.049146
1	1	0	1	0	0	0	9.3382	10	4.91449	10.0011	0.0928929	0.0928929	0	0.0258036	11	0.000126418	0.000000000000000E+000	1.18337e+06	0.000000000000000E+000	0.000000000000000E+000	0.0258036	0.0258036	0.0000000E+000	0.000000000000000E+000	0.0491504