File: Data_1mg/2022_01_27 Ni60Co30Fe10Ox 1mg ref309__03_CP_C02.mpt
EC-Lab ASCII FILE
Nb header lines : 53

Chronopotentiometry

Run on channel : 2 (SN 12477)
User :
CE vs. WE compliance from -10 V to 10 V
Electrode connection : standard
Potential control : Ewe
Ewe ctrl range : min = -2.50 V, max = 2.50 V
Safety Limits :
	Do not start on E overload
Acquisition started on : 01/27/2023 11:35:24.466
Loaded Setting File :  C:\Users\grupogalan\Documents\EC-Lab\Data\Scott\_cyclic_pause_tafel.mps
Saved on :
	File : 2022_01_27 Ni60Co30Fe10Ox 1mg ref309__03_CP_C02.mpr
	Directory : C:\Users\grupogalan\Documents\EC-Lab\Data\Scott\
	Host : 169.254.104.159
Device : VSP (SN 1176)
Address : USB
EC-Lab for windows v11.46 (software)
Internet server v11.40 (firmware)
Command interpretor v11.40 (firmware)
Electrode material :
Initial state :
Electrolyte :
Comments :
Electrode surface area : 0.000 cm²
Characteristic mass : 0.001 g
Equivalent Weight : 0.000 g/eq.
Density : 0.000 g/cm3
Volume (V) : 0.001 cm³
Cycle Definition : Charge/Discharge alternance
Ns                  0                   1                   2                   3                   4                   5                   6                   7                   8                   9                   10                  11                  12
Is                  10.000              18.000              32.000              56.000              100.000             178.000             316.000             562.000             1.000               1.778               3.162               5.623               10.000
unit Is             µA                  µA                  µA                  µA                  µA                  µA                  µA                  µA                  mA                  mA                  mA                  mA                  mA
vs.                 <None>              <None>              <None>              <None>              <None>              <None>              <None>              <None>              <None>              <None>              <None>              <None>              <None>
ts (h:m:s)          0:03:0.0000         0:03:0.0000         0:03:0.0000         0:03:0.0000         0:03:0.0000         0:03:0.0000         0:03:0.0000         0:03:0.0000         0:03:0.0000         0:03:0.0000         0:03:0.0000         0:03:0.0000         0:03:0.0000
EM (V)              pass                pass                pass                pass                pass                pass                pass                pass                pass                pass                pass                pass                pass
dQM                 500.000             900.000             1.600               2.800               5.000               8.900               15.800              28.100              50.000              88.900              158.100             281.150             500.000
unit dQM            nA.h                nA.h                µA.h                µA.h                µA.h                µA.h                µA.h                µA.h                µA.h                µA.h                µA.h                µA.h                µA.h
record              <Ewe>               <Ewe>               <Ewe>               <Ewe>               <Ewe>               <Ewe>               <Ewe>               <Ewe>               <Ewe>               <Ewe>               <Ewe>               <Ewe>               <Ewe>
dEs (mV)            0.00                0.00                0.00                0.00                0.00                0.00                0.00                0.00                0.00                0.00                0.00                0.00                0.00
dts (s)             1.0000              1.0000              1.0000              1.0000              1.0000              1.0000              1.0000              1.0000              1.0000              1.0000              1.0000              1.0000              1.0000
E range min (V)     -2.500              -2.500              -2.500              -2.500              -2.500              -2.500              -2.500              -2.500              -2.500              -2.500              -2.500              -2.500              -2.500
E range max (V)     2.500               2.500               2.500               2.500               2.500               2.500               2.500               2.500               2.500               2.500               2.500               2.500               2.500
I Range             10 mA               10 mA               10 mA               10 mA               10 mA               10 mA               10 mA               10 mA               10 mA               10 mA               10 mA               10 mA               10 mA
Bandwidth           5                   5                   5                   5                   5                   5                   5                   5                   5                   5                   5                   5                   5
goto Ns'            0                   0                   0                   0                   0                   0                   0                   0                   0                   0                   0                   0                   0
nc cycles           0                   0                   0                   0                   0                   0                   0                   0                   0                   0                   0                   0                   0

mode	ox/red	error	control changes	Ns changes	counter inc.	Ns	time/s	control/mA	<Ewe>/V	I/mA	dQ/C	(Q-Qo)/C	half cycle	Q charge/discharge/mA.h	I Range	Energy charge/W.h	Energy discharge/W.h	Capacitance charge/µF	Capacitance discharge/µF	Q discharge/mA.h	Q charge/mA.h	Capacity/mA.h	Efficiency/%	cycle number	P/W
1	1	0	0	0	0	0	628.598	0.01	0.308236	0.0122166	1.08995e-05	1.08995e-05	0	3.02763e-06	11	9.33224e-10	0.000000000000000E+000	0.000000000000000E+000	0.000000000000000E+000	0.000000000000000E+000	3.02763e-06	3.02763e-06	0.0000000E+000	0.000000000000000E+000	3.76558e-06
1	1	0	0	0	0	0	684.598	0.01	0.543827	0.0109441	0.000652968	0.000652968	0	0.00018138	11	1.01623e-07	0.000000000000000E+000	2771.62	0.000000000000000E+000	0.000000000000000E+000	0.00018138	0.00018138	0.0000000E+000	0.000000000000000E+000	5.95167e-06
1	1	0	0	0	0	0	740.598	0.01	0.478766	0.0115803	0.00129495	0.00129495	0	0.000359709	11	1.92789e-07	0.000000000000000E+000	7593.7	0.000000000000000E+000	0.000000000000000E+000	0.000359709	0.000359709	0.0000000E+000	0.000000000000000E+000	5.54426e-06
1	1	0	0	0	0	0	796.598	0.01	0.412045	0.0110713	0.00193601	0.00193601	0	0.000537781	11	2.71999e-07	0.000000000000000E+000	18649.7	0.000000000000000E+000	0.000000000000000E+000	0.000537781	0.000537781	0.0000000E+000	0.000000000000000E+000	4.56188e-06
1	1	0	1	0	0	1	851.651	0.018	0.435557	0.0193426	0.000828942	0.00289148	0	0.000803188	11	3.89189e-07	0.000000000000000E+000	22710.2	0.000000000000000E+000	0.000000000000000E+000	0.000803188	0.000803188	0.0000000E+000	0.000000000000000E+000	8.42479e-06
1	1	0	1	0	0	1	907.651	0.018	0.398605	0.0181973	0.00188385	0.00394638	0	0.00109622	11	5.11407e-07	0.000000000000000E+000	43669.5	0.000000000000000E+000	0.000000000000000E+000	0.00109622	0.00109622	0.0000000E+000	0.000000000000000E+000	7.25355e-06
1	1	0	1	0	0	1	963.651	0.018	0.360832	0.0185791	0.00293836	0.0050009	0	0.00138914	11	6.22478e-07	0.000000000000000E+000	95081.7	0.000000000000000E+000	0.000000000000000E+000	0.00138914	0.00138914	0.0000000E+000	0.000000000000000E+000	6.70392e-06
1	1	0	0	0	0	2	1018.65	0.032	0.4328	0.0323221	0.00102337	0.00647653	0	0.00179904	11	7.86313e-07	0.000000000000000E+000	51993.8	0.000000000000000E+000	0.000000000000000E+000	0.00179904	0.00179904	0.0000000E+000	0.000000000000000E+000	1.3989e-05
1	1	0	0	0	0	2	1074.65	0.032	0.459071	0.0328311	0.002872	0.00832516	0	0.00231254	11	1.01625e-06	0.000000000000000E+000	55193.8	0.000000000000000E+000	0.000000000000000E+000	0.00231254	0.00231254	0.0000000E+000	0.000000000000000E+000	1.50718e-05
1	1	0	0	0	0	2	1130.65	0.032	0.473408	0.0325766	0.00472076	0.0101739	0	0.00282609	11	1.25606e-06	0.000000000000000E+000	61595.9	0.000000000000000E+000	0.000000000000000E+000	0.00282609	0.00282609	0.0000000E+000	0.000000000000000E+000	1.5422e-05
1	1	0	1	0	0	3	1185.65	0.056	0.580781	0.0568178	0.00103409	0.0124292	0	0.00345257	11	1.57944e-06	0.000000000000000E+000	45604.3	0.000000000000000E+000	0.000000000000000E+000	0.00345257	0.00345257	0.0000000E+000	0.000000000000000E+000	3.29987e-05
1	1	0	1	0	0	3	1241.65	0.056	0.660404	0.0578994	0.00425171	0.0156469	0	0.00434635	11	2.13996e-06	0.000000000000000E+000	44430	0.000000000000000E+000	0.000000000000000E+000	0.00434635	0.00434635	0.0000000E+000	0.000000000000000E+000	3.8237e-05
1	1	0	1	0	0	3	1297.65	0.056	0.690376	0.0568178	0.00746843	0.0188636	0	0.00523988	11	2.74584e-06	0.000000000000000E+000	49363	0.000000000000000E+000	0.000000000000000E+000	0.00523988	0.00523988	0.0000000E+000	0.000000000000000E+000	3.92256e-05
1	1	0	0	0	0	4	1352.65	0.1	0.748547	0.101037	0.000506306	0.0222419	0	0.00617831	11	3.40729e-06	0.000000000000000E+000	50514.1	0.000000000000000E+000	0.000000000000000E+000	0.00617831	0.00617831	0.0000000E+000	0.000000000000000E+000	7.56312e-05
1	1	0	0	0	0	4	1408.65	0.1	0.762426	0.101546	0.00617684	0.0279125	0	0.00775346	11	4.5996e-06	0.000000000000000E+000	61455.4	0.000000000000000E+000	0.000000000000000E+000	0.00775346	0.00775346	0.0000000E+000	0.000000000000000E+000	7.74215e-05
1	1	0	0	0	0	4	1464.65	0.1	0.767999	0.102564	0.0118483	0.0335839	0	0.00932885	11	5.80566e-06	0.000000000000000E+000	73046.1	0.000000000000000E+000	0.000000000000000E+000	0.00932885	0.00932885	0.0000000E+000	0.000000000000000E+000	7.87692e-05
1	1	0	0	0	0	4	1520.65	0.1	0.771329	0.100401	0.017519	0.0392546	0	0.0109041	11	7.01827e-06	0.000000000000000E+000	84766.3	0.000000000000000E+000	0.000000000000000E+000	0.0109041	0.0109041	0.0000000E+000	0.000000000000000E+000	7.74422e-05
1	1	0	1	0	0	5	1575.65	0.178	0.817261	0.179805	0.00859678	0.0485602	0	0.0134889	11	9.11608e-06	0.000000000000000E+000	95398.6	0.000000000000000E+000	0.000000000000000E+000	0.0134889	0.0134889	0.0000000E+000	0.000000000000000E+000	0.000146948
1	1	0	1	0	0	5	1631.65	0.178	0.82052	0.179614	0.0186267	0.0585901	0	0.016275	11	1.13978e-05	0.000000000000000E+000	114370	0.000000000000000E+000	0.000000000000000E+000	0.016275	0.016275	0.0000000E+000	0.000000000000000E+000	0.000147377
1	1	0	1	0	0	5	1687.65	0.178	0.822713	0.178851	0.0286566	0.06862	0	0.0190611	11	1.36872e-05	0.000000000000000E+000	133378	0.000000000000000E+000	0.000000000000000E+000	0.0190611	0.0190611	0.0000000E+000	0.000000000000000E+000	0.000147143
1	1	0	0	0	0	6	1742.65	0.316	0.873103	0.317236	0.0111032	0.0833055	0	0.0231404	11	1.71923e-05	0.000000000000000E+000	147478	0.000000000000000E+000	0.000000000000000E+000	0.0231404	0.0231404	0.0000000E+000	0.000000000000000E+000	0.00027698
1	1	0	0	0	0	6	1798.65	0.316	0.878171	0.31749	0.0288683	0.101071	0	0.0280752	11	2.15142e-05	0.000000000000000E+000	177337	0.000000000000000E+000	0.000000000000000E+000	0.0280752	0.0280752	0.0000000E+000	0.000000000000000E+000	0.000278811
1	1	0	0	0	0	6	1854.65	0.316	0.881678	0.317108	0.046634	0.118836	0	0.0330101	11	2.58568e-05	0.000000000000000E+000	207233	0.000000000000000E+000	0.000000000000000E+000	0.0330101	0.0330101	0.0000000E+000	0.000000000000000E+000	0.000279588
1	1	0	1	0	0	7	1909.65	0.562	0.954049	0.562956	0.0123947	0.1417	0	0.0393612	11	3.1694e-05	0.000000000000000E+000	219414	0.000000000000000E+000	0.000000000000000E+000	0.0393612	0.0393612	0.0000000E+000	0.000000000000000E+000	0.000537088
1	1	0	1	0	0	7	1965.65	0.562	0.968907	0.563529	0.0439452	0.173251	0	0.0481252	11	4.01248e-05	0.000000000000000E+000	262235	0.000000000000000E+000	0.000000000000000E+000	0.0481252	0.0481252	0.0000000E+000	0.000000000000000E+000	0.000546007
1	1	0	1	0	0	7	2021.65	0.562	0.981297	0.564228	0.0754954	0.204801	0	0.0568892	11	4.86745e-05	0.000000000000000E+000	304283	0.000000000000000E+000	0.000000000000000E+000	0.0568892	0.0568892	0.0000000E+000	0.000000000000000E+000	0.000553675
1	1	0	0	0	0	8	2076.65	1	1.09803	1.00178	0.00901073	0.239728	0	0.0665912	11	5.85059e-05	0.000000000000000E+000	303532	0.000000000000000E+000	0.000000000000000E+000	0.0665912	0.0665912	0.0000000E+000	0.000000000000000E+000	0.00109999
1	1	0	0	0	0	8	2132.65	1	1.12429	1.00267	0.0650784	0.295796	0	0.0821656	11	7.58651e-05	0.000000000000000E+000	362471	0.000000000000000E+000	0.000000000000000E+000	0.0821656	0.0821656	0.0000000E+000	0.000000000000000E+000	0.00112729
1	1	0	0	0	0	8	2188.65	1	1.13523	1.00152	0.121145	0.351863	0	0.0977397	11	9.34589e-05	0.000000000000000E+000	425471	0.000000000000000E+000	0.000000000000000E+000	0.0977397	0.0977397	0.0000000E+000	0.000000000000000E+000	0.00113696
1	1	0	0	0	0	8	2244.65	1	1.14794	1.00165	0.177211	0.407929	0	0.113314	11	0.000111236	0.000000000000000E+000	485800	0.000000000000000E+000	0.000000000000000E+000	0.113314	0.113314	0.0000000E+000	0.000000000000000E+000	0.00114984
1	1	0	1	0	0	9	2299.65	1.778	1.28105	1.77781	0.0924929	0.503426	0	0.139841	11	0.000145045	0.000000000000000E+000	517494	0.000000000000000E+000	0.000000000000000E+000	0.139841	0.139841	0.0000000E+000	0.000000000000000E+000	0.00227747
1	1	0	1	0	0	9	2355.65	1.778	1.29009	1.77883	0.192101	0.603034	0	0.167509	11	0.0001806	0.000000000000000E+000	614181	0.000000000000000E+000	0.000000000000000E+000	0.167509	0.167509	0.0000000E+000	0.000000000000000E+000	0.00229485
1	1	0	1	0	0	9	2411.65	1.778	1.29461	1.77813	0.291708	0.70264	0	0.195178	11	0.000216414	0.000000000000000E+000	712345	0.000000000000000E+000	0.000000000000000E+000	0.195178	0.195178	0.0000000E+000	0.000000000000000E+000	0.00230199
1	1	0	0	0	0	10	2466.65	3.162	1.45594	3.16325	0.123359	0.854459	0	0.23735	11	0.000276204	0.000000000000000E+000	744496	0.000000000000000E+000	0.000000000000000E+000	0.23735	0.23735	0.0000000E+000	0.000000000000000E+000	0.0046055
1	1	0	0	0	0	10	2522.65	3.162	1.48211	3.16351	0.30049	1.03159	0	0.286553	11	0.00034839	0.000000000000000E+000	878788	0.000000000000000E+000	0.000000000000000E+000	0.286553	0.286553	0.0000000E+000	0.000000000000000E+000	0.00468868
1	1	0	0	0	0	10	2578.65	3.162	1.51439	3.16287	0.47762	1.20872	0	0.335756	11	0.000421986	0.000000000000000E+000	1.00213e+06	0.000000000000000E+000	0.000000000000000E+000	0.335756	0.335756	0.0000000E+000	0.000000000000000E+000	0.00478982
1	1	0	1	0	0	11	2633.65	5.623	1.77304	5.62402	0.146222	1.44667	0	0.401853	11	0.000531098	0.000000000000000E+000	987618	0.000000000000000E+000	0.000000000000000E+000	0.401853	0.401853	0.0000000E+000	0.000000000000000E+000	0.00997163
1	1	0	1	0	0	11	2689.65	5.623	2.03829	5.62415	0.461161	1.76161	0	0.489336	11	0.000696948	0.000000000000000E+000	1.01824e+06	0.000000000000000E+000	0.000000000000000E+000	0.489336	0.489336	0.0000000E+000	0.000000000000000E+000	0.0114636
1	1	0	1	0	0	11	2745.65	5.623	2.30255	5.62351	0.776101	2.07655	0	0.576819	11	0.000887123	0.000000000000000E+000	1.04124e+06	0.000000000000000E+000	0.000000000000000E+000	0.576819	0.576819	0.0000000E+000	0.000000000000000E+000	0.0129484
1	1	0	0	0	0	12	2800.65	10	2.87216	10.0012	0.130017	2.44277	0	0.678548	11	0.00114517	0.000000000000000E+000	952748	0.000000000000000E+000	0.000000000000000E+000	0.678548	0.678548	0.0000000E+000	0.000000000000000E+000	0.028725
1	1	0	0	0	0	12	2856.65	10	3.78196	10.0016	0.690092	3.00285	0	0.834124	11	0.00166376	0.000000000000000E+000	864445	0.000000000000000E+000	0.000000000000000E+000	0.834124	0.834124	0.0000000E+000	0.000000000000000E+000	0.0378258
1	1	0	0	0	0	12	2912.65	10	4.49722	10.0015	1.25017	3.56292	0	0.989701	11	0.0023129	0.000000000000000E+000	850545	0.000000000000000E+000	0.000000000000000E+000	0.989701	0.989701	0.0000000E+000	0.000000000000000E+000	0.0449789
1	1	0	0	0	0	12	2967.65	10	4.88002	10.0009	1.80024	4.113	0	1.1425	11	0.00303256	0.000000000000000E+000	899648	0.000000000000000E+000	0.000000000000000E+000	1.1425	1.1425	0.0000000E+000	0.000000000000000E+000	0.0488047