File: Data_1mg/2022_01_25 Co30Ni60Fe10Nx 1mg  ref309 elect1 set_C05.mpt
EC-Lab ASCII FILE
Nb header lines : 65

Potentio Electrochemical Impedance Spectroscopy

Run on channel : 5 (SN 30436)
User :
CE vs. WE compliance from -10 V to 10 V
Electrode connection : standard
Potential control : Ewe
Ewe ctrl range : min = -10.00 V, max = 10.00 V
Safety Limits :
	Do not start on E overload
Acquisition started on : 01/25/2023 15:22:50.516
Loaded Setting File :  NONE
Saved on :
	File : 2022_01_25 Co30Ni60Fe10Nx 1mg  ref309 elect1 set_C05.mpr
	Directory : C:\Users\grupogalan\Documents\EC-Lab\Data\Scott\
	Host : 169.254.104.159
Device : VSP (SN 1176)
Address : USB
EC-Lab for windows v11.46 (software)
Internet server v11.40 (firmware)
Command interpretor v11.40 (firmware)
Electrode material :
Initial state :
Electrolyte :
Comments :
Electrode surface area : 0.000 cm²
Characteristic mass : 0.001 g
Equivalent Weight : 0.000 g/eq.
Density : 0.000 g/cm3
Volume (V) : 0.001 cm³
Record Ece
Record Analogic IN 1
Cycle Definition : Charge/Discharge alternance
Mode                Single sine
E (V)               0.0000
vs.                 Eoc
tE (h:m:s)          0:00:0.0000
record              0
dI                  0.000
unit dI             mA
dt (s)              0.000
fi                  200.000
unit fi             kHz
ff                  100.000
unit ff             mHz
Nd                  6
Points              per decade
spacing             Logarithmic
Va (mV)             10.0
pw                  0.10
Na                  2
corr                0
E range min (V)     -10.000
E range max (V)     10.000
I Range             Auto
Bandwidth           5
nc cycles           0
goto Ns'            0
nr cycles           0
inc. cycle          0

freq/Hz	Re(Z)/Ohm	-Im(Z)/Ohm	|Z|/Ohm	Phase(Z)/deg	time/s	<Ewe>/V	<I>/mA	Cs/µF	Cp/µF	cycle number	I Range	|Ewe|/V	|I|/A	Ns	(Q-Qo)/mA.h	<Ece>/V	|Ece|/V	Phase(Zce)/deg	|Zce|/Ohm	Re(Zce)/Ohm	-Im(Zce)/Ohm	Phase(Zwe-ce)/deg	|Zwe-ce|/Ohm	Re(Zwe-ce)/Ohm	-Im(Zwe-ce)/Ohm	Analog IN 1/V	Re(Y)/Ohm-1	Im(Y)/Ohm-1	|Y|/Ohm-1	Phase(Y)/deg	dq/mA.h
199998	1.71318	-1.37077	2.19409	38.6644	2.36855	-0.174108	-0.166676	-0.580536	-0.226596	1	9	0.00766854	0.0034951	0	-3.22596e-05	-0.124257	0.00221556	-49.8659	0.633906	0.408603	0.484645	22.667	2.29939	2.12179	-0.886126	0.000705916	0.355874	-0.284746	0.455771	-38.6644	-3.22596e-05
135123	1.25169	-0.517612	1.3545	22.4665	2.74556	-0.173843	-0.15665	-2.27555	-0.332308	1	9	0.0102825	0.00759138	0	-4.81624e-05	-0.12399	0.00730368	1.58307	0.962102	0.961735	-0.0265794	13.8127	2.27934	2.21343	-0.544191	-1.62509e-05	0.682249	-0.28213	0.738282	-22.4665	-1.59029e-05
91291.2	1.1619	-0.188126	1.17703	9.19707	3.24456	-0.174072	-0.159259	-9.26706	-0.236735	1	9	0.00979396	0.00832088	0	-7.00081e-05	-0.119673	0.0087594	7.48437	1.0527	1.04373	-0.13712	8.38848	2.22949	2.20564	-0.325247	-1.62509e-05	0.838671	-0.135791	0.849593	-9.19707	-2.18457e-05
61674.2	1.17721	0.000468717	1.17721	-0.0228128	3.62156	-0.173961	-0.150501	5505.62	0.000872809	1	9	0.00941461	0.00799739	0	-8.77746e-05	-0.120361	0.0086165	5.51501	1.07741	1.07243	-0.103546	2.62344	2.252	2.24964	-0.103078	-1.62509e-05	0.849466	0.000338223	0.849466	0.0228128	-1.77666e-05
41669.8	1.16076	0.0965389	1.16477	-4.75427	3.99856	-0.174223	-0.143792	39.5637	0.271783	1	9	0.0100991	0.00867049	0	-0.00011373	-0.121755	0.00916694	6.12836	1.05726	1.05122	-0.112869	0.42298	2.21204	2.21198	-0.01633	0.000224471	0.855586	0.071158	0.85854	4.75427	-2.59557e-05
28151	1.19411	0.212804	1.21293	-10.1047	4.49752	-0.174132	-0.151843	26.5673	0.817783	1	9	0.0100879	0.008317	0	-0.000116998	-0.120036	0.0090333	2.51471	1.08613	1.08508	-0.0476547	-4.14439	2.28517	2.27919	0.165149	0.000224471	0.811664	0.144648	0.824453	10.1047	-3.26739e-06
19020.9	1.23276	0.386218	1.29185	-17.3955	4.99655	-0.17443	-0.238644	21.6649	1.93642	1	9	0.009961	0.00771067	0	-9.4136e-05	-0.118221	0.00816599	1.03544	1.05905	1.05888	-0.0191379	-9.10045	2.32085	2.29164	0.36708	0.000144231	0.738683	0.231425	0.774086	17.3955	2.28617e-05
12850.7	1.2591	0.528289	1.36544	-22.7618	5.25156	-0.174241	-0.168279	23.4434	3.50928	1	9	0.0110089	0.00806252	0	-0.000111473	-0.114229	0.00860008	-1.56719	1.06667	1.06628	0.0291727	-13.4811	2.39126	2.32538	0.557462	-0.000256973	0.675329	0.283352	0.732365	22.7618	-1.73371e-05
8684.68	1.29716	0.782228	1.51476	-31.0913	5.50653	-0.174117	-0.138798	23.4279	6.24757	1	9	0.010623	0.007013	0	-0.000126115	-0.124181	0.00765132	-1.62555	1.09102	1.09058	0.0309494	-18.807	2.52241	2.38774	0.813177	-9.64916e-05	0.565334	0.340914	0.66017	31.0913	-1.4642e-05
5864.01	1.33016	1.10508	1.72932	-39.7194	5.76154	-0.173969	-0.16239	24.5601	10.0293	1	9	0.00993411	0.00574453	0	-0.000141749	-0.125117	0.00624916	-0.971854	1.08784	1.08769	0.0184512	-24.9235	2.66614	2.41785	1.12353	0.000304712	0.44479	0.369527	0.578263	39.7194	-1.56336e-05
3960.08	1.44146	1.57823	2.13743	-47.5933	6.06281	-0.174207	-0.20402	25.4652	13.8836	1	9	0.00971693	0.00454609	0	-0.000158768	-0.123207	0.0052057	0.214564	1.14509	1.14509	-0.00428818	-31.321	3.02778	2.58654	1.57394	6.39899e-05	0.315514	0.345451	0.467852	47.5933	-1.70195e-05
2678.72	1.47842	2.20355	2.65356	-56.1413	6.49208	-0.174103	-0.142898	26.9631	18.5934	1	9	0.00917408	0.00345728	0	-0.000178414	-0.12653	0.00402121	-7.10327	1.16311	1.15419	0.143828	-41.722	3.52715	2.6326	2.34738	0.000144231	0.209962	0.312944	0.376853	56.1413	-1.96456e-05
1808.26	1.66946	3.1286	3.54616	-61.9151	7.18104	-0.173802	-0.0185706	28.1325	21.8974	1	10	0.00981748	0.00276848	0	-0.00019077	-0.126683	0.00295304	-5.20901	1.06666	1.06226	0.0968414	-49.7379	4.22679	2.73171	3.22544	0.000304712	0.132757	0.248791	0.281995	61.9151	-1.23559e-05
1221.96	1.80592	4.47703	4.82754	-68.0321	7.62557	-0.174288	-0.0265825	29.0921	25.0209	1	10	0.0092709	0.00192042	0	-0.000195196	-0.124353	0.00221224	-11.9013	1.15196	1.12719	0.237563	-58.1128	5.55253	2.93311	4.7146	-0.000176732	0.0774901	0.192105	0.207145	68.0321	-4.42669e-06
825.264	1.90854	6.61012	6.88014	-73.895	8.07084	-0.174158	-0.0241517	29.1755	26.9304	1	10	0.00917911	0.00133415	0	-0.000197866	-0.125289	0.00154669	-22.1122	1.15931	1.07404	0.436389	-67.0585	7.65174	2.98258	7.04651	6.39899e-05	0.0403188	0.139642	0.145346	73.895	-2.66953e-06
558.036	2.07363	9.58768	9.80937	-77.796	8.73259	-0.173998	-0.0220379	29.7471	28.4178	1	10	0.0100935	0.00102897	0	-0.000202144	-0.124315	0.00110375	-21.6389	1.07267	0.997079	0.395555	-72.9028	10.4448	3.07071	9.98324	0.000705916	0.0215502	0.0996396	0.101943	77.796	-4.27835e-06
377.051	3.03133	13.5937	13.9276	-77.429	9.17683	-0.174161	-0.0205019	31.0515	29.5806	1	10	0.0099849	0.000716916	0	-0.000204994	-0.123455	0.00116104	-13.4841	1.6195	1.57485	0.377627	-71.7532	14.711	4.60618	13.9713	-0.000497695	0.0156272	0.0700788	0.0718	77.429	-2.84923e-06
254.755	3.02568	19.4434	19.6774	-81.1549	9.62304	-0.17415	-0.0225076	32.131	31.3713	1	10	0.00970852	0.000493383	0	-0.000207758	-0.124792	0.000575581	-14.664	1.1666	1.1286	0.295325	-78.1148	20.1712	4.15428	19.7387	6.39899e-05	0.00781422	0.0502153	0.0508196	81.1549	-2.76448e-06
172.037	4.10395	28.7657	29.057	-81.8805	10.3045	-0.174297	-0.00286107	32.1605	31.519	1	11	0.0100461	0.000345739	0	-0.000209064	-0.124486	0.000723548	-39.0024	2.09276	1.62632	1.31708	-79.2153	30.6237	5.73027	30.0828	0.000384953	0.00486072	0.0340701	0.0344151	81.8805	-1.30632e-06
116.227	5.12039	41.7059	42.0191	-83.0006	10.7447	-0.173931	-0.00226046	32.8333	32.3457	1	11	0.0100209	0.000238486	0	-0.000209335	-0.121316	0.000192351	-19.4747	0.80655	0.760407	0.268896	-82.0246	42.3848	5.88079	41.9748	-1.62509e-05	0.00290008	0.0236214	0.0237987	83.0006	-2.70251e-07
78.5176	8.11181	59.2862	59.8386	-82.2089	11.1987	-0.174691	-0.00331219	34.19	33.5617	1	11	0.00986955	0.000164936	0	-0.000209967	-0.124353	0.000284492	-33.7407	1.72486	1.43432	0.958047	-80.9959	60.9959	9.54613	60.2443	-0.000256973	0.00226545	0.0165574	0.0167116	82.2089	-6.32176e-07
53.0478	10.9757	85.2734	85.9769	-82.6657	11.6593	-0.173955	-0.0029047	35.1835	34.6101	1	11	0.00976168	0.000113538	0	-0.000210172	-0.124085	0.000510174	-56.0598	4.4934	2.50879	3.72782	-81.3847	90.017	13.4845	89.0012	-1.62509e-05	0.0014848	0.0115359	0.011631	82.6657	-2.05366e-07
35.8372	15.9256	120.127	121.178	-82.4482	12.0952	-0.174187	-0.00279472	36.9697	36.3312	1	11	0.00954664	7.87819e-05	0	-0.000210558	-0.12676	0.000684882	-39.8354	8.69339	6.67555	5.56885	-79.8067	127.712	22.6011	125.696	0.000384953	0.00108455	0.00818074	0.00825232	82.4482	-3.86288e-07
24.2323	21.0542	175.145	176.406	-83.1454	12.8032	-0.174071	-0.000788795	37.4996	36.9654	1	12	0.00982364	5.56876e-05	0	-0.000210746	-0.14525	0.000221427	-72.0769	3.97624	1.22365	3.78327	-82.9028	180.31	22.2779	178.929	-1.62509e-05	0.000676568	0.00562821	0.00566873	83.1454	-1.87693e-07
16.367	34.5475	264.052	266.303	-82.546	13.2131	-0.174085	-0.00034819	36.8266	36.2068	1	12	0.0102101	3.83403e-05	0	-0.000210999	-0.126779	0.000335535	-106.997	8.7515	-2.5583	8.36922	-83.3027	274.293	31.9892	272.421	0.000224471	0.000487153	0.00372339	0.00375513	82.546	-2.52602e-07
11.0502	43.7781	374.641	377.19	-83.335	13.6189	-0.174205	-0.00104455	38.4445	37.9266	1	12	0.00995706	2.6398e-05	0	-0.000210933	-0.126721	0.000534152	22.4014	20.2346	18.7076	-7.71124	-80.3356	372.212	62.4857	366.93	0.000224471	0.000307706	0.00263327	0.00265118	83.335	6.57121e-08
7.46893	79.9023	497.8	504.172	-80.8812	13.9267	-0.174133	-0.000717785	42.8062	41.731	1	12	0.00961111	1.90632e-05	0	-0.000211086	-0.126473	0.000287214	-72.8644	15.0664	4.43908	14.3976	-80.6493	519.095	84.3414	512.198	0.000384953	0.000314342	0.00195838	0.00198345	80.8812	-1.52858e-07
5.04683	93.5101	729.234	735.205	-82.6928	14.369	-0.174125	-0.000294736	43.2448	42.5453	1	12	0.00978588	1.33104e-05	0	-0.000211106	-0.13228	0.000317671	-44.3369	23.8664	17.0703	16.6796	-81.5674	754.066	110.58	745.913	0.000384953	0.000172998	0.00134912	0.00136017	82.6928	-2.01955e-08