File: Data_1mg/2022_01_30 CoNx 1mg ref309_set1_01_CV_C02.mpt
EC-Lab ASCII FILE
Nb header lines : 57

Cyclic Voltammetry

Run on channel : 2 (SN 12477)
User :
CE vs. WE compliance from -10 V to 10 V
Electrode connection : standard
Potential control : Ewe
Ewe ctrl range : min = -2.50 V, max = 2.50 V
Safety Limits :
	Do not start on E overload
Acquisition started on : 01/30/2023 10:32:13.088
Loaded Setting File :  C:\Users\grupogalan\Documents\EC-Lab\Data\Scott\_cyclic_pause_tafel.mps
Saved on :
	File : 2022_01_30 CoNx 1mg ref309_set1_01_CV_C02.mpr
	Directory : C:\Users\grupogalan\Documents\EC-Lab\Data\Scott\
	Host : 169.254.104.159
Device : VSP (SN 1176)
Address : USB
EC-Lab for windows v11.46 (software)
Internet server v11.40 (firmware)
Command interpretor v11.40 (firmware)
Electrode material :
Initial state :
Electrolyte :
Comments :
Electrode surface area : 0.000 cm²
Characteristic mass : 0.001 g
Equivalent Weight : 0.000 g/eq.
Density : 0.000 g/cm3
Volume (V) : 0.001 cm³
Cycle Definition : Charge/Discharge alternance
Ei (V)              0.000
vs.                 Eoc
dE/dt               10.000
dE/dt unit          mV/s
E1 (V)              1.000
vs.                 Ref
Step percent        50
N                   10
E range min (V)     -2.500
E range max (V)     2.500
I Range             Auto
I Range min         Unset
I Range max         Unset
I Range init        Unset
Bandwidth           5
E2 (V)              0.000
vs.                 Ref
nc cycles           2
Reverse Scan        1
Ef (V)              0.000
vs.                 Eoc

mode	ox/red	error	control changes	counter inc.	time/s	control/V	Ewe/V	<I>/mA	cycle number	(Q-Qo)/C	I Range	P/W
2	1	0	1	0	0.000000000000000E+000	-0.204379	-0.206575	0.00126216	1	0.0000000E+000	13	-2.60731e-07
2	0	0	1	0	4.5862	-0.158518	-0.158461	0.000534035	1	4.31381e-06	12	-8.46237e-08
2	1	0	0	0	9.1872	-0.112507	-0.112992	0.00111758	1	1.07181e-05	12	-1.26278e-07
2	1	0	0	0	13.7884	-0.0664963	-0.0669327	0.00242323	1	2.13837e-05	12	-1.62193e-07
2	0	0	1	0	18.3894	-0.0204855	-0.0203236	0.00202665	1	3.45329e-05	12	-4.1189e-08
2	0	0	1	0	22.9905	0.0255255	0.0245639	0.00209477	1	4.9387e-05	12	5.14557e-08
2	0	0	0	0	27.5916	0.0715361	0.0699266	0.00333884	1	6.68115e-05	12	2.33474e-07
2	0	0	1	0	32.1926	0.117547	0.117116	0.00728318	1	9.21408e-05	12	8.52975e-07
2	0	0	1	0	36.7938	0.163558	0.163961	0.0177926	1	0.000147089	12	2.9173e-06
2	1	0	0	0	41.3948	0.209568	0.209188	0.040901	1	0.00027413	12	8.55602e-06
2	1	0	1	0	45.9959	0.255579	0.255449	0.104651	1	0.000588925	12	2.67329e-05
2	1	0	1	0	50.597	0.30159	0.303117	0.249209	1	0.00137329	12	7.55395e-05
2	1	0	0	0	55.198	0.347601	0.34702	0.507377	1	0.0030685	12	0.00017607
2	1	0	0	0	59.7992	0.393612	0.391185	0.919371	1	0.00629489	12	0.000359645
2	1	0	1	0	64.4302	0.439923	0.439147	1.50226	1	0.0118521	11	0.000659713
2	1	0	1	0	69.0314	0.485933	0.485615	2.18768	1	0.020312	11	0.00106237
2	1	0	0	0	73.6324	0.531944	0.532264	2.94276	1	0.0321194	11	0.00156633
2	1	0	1	0	78.2334	0.577955	0.576862	3.71009	1	0.0474386	11	0.00214021
2	1	0	1	0	82.8346	0.623966	0.624214	4.45168	1	0.0662276	11	0.0027788
2	1	0	0	0	87.4356	0.669976	0.670016	5.26713	1	0.0885185	11	0.00352906
2	1	0	0	0	92.0368	0.715987	0.715204	6.49515	1	0.115361	11	0.00464536
2	1	0	1	0	96.6378	0.761998	0.760974	8.51682	1	0.149539	11	0.00648108
2	1	0	0	0	101.269	0.808309	0.807627	11.5891	1	0.195721	10	0.00935969
2	1	0	0	0	105.87	0.85432	0.85324	15.6691	1	0.25816	10	0.0133695
2	1	0	1	0	110.471	0.90033	0.900338	20.5298	1	0.341243	10	0.0184837
2	1	0	1	0	115.072	0.946341	0.945468	25.4228	1	0.447134	10	0.0240364
2	1	0	0	0	119.673	0.992352	0.991382	29.1458	1	0.573691	10	0.0288946
2	1	0	1	0	124.095	0.963445	0.963396	22.6219	1	0.690236	10	0.0217938
2	1	0	1	0	128.696	0.917434	0.917317	16.7272	1	0.779995	10	0.0153442
2	1	0	0	0	133.297	0.871424	0.870408	12.136	1	0.84604	10	0.0105633
2	1	0	1	0	137.898	0.825414	0.825082	8.46013	1	0.893055	10	0.0069803
2	1	0	1	0	142.499	0.779402	0.778399	5.63221	1	0.925127	10	0.00438411
2	1	0	0	0	147.13	0.733091	0.732712	3.51366	1	0.946042	11	0.0025745
2	1	0	0	0	151.731	0.68708	0.686817	2.01026	1	0.958539	11	0.00138068
2	1	0	1	0	156.332	0.64107	0.641278	0.974873	1	0.965239	11	0.000625164
2	1	0	1	0	160.963	0.594759	0.595262	0.287008	1	0.968034	12	0.000170845
2	0	0	0	0	165.564	0.548748	0.547734	-0.136166	1	0.96829	12	-7.45826e-05
2	0	0	1	0	170.165	0.502737	0.501948	-0.37402	1	0.967051	12	-0.000187739
2	0	0	1	0	174.767	0.456726	0.455828	-0.478166	1	0.965043	12	-0.000217962
2	0	0	0	0	179.368	0.410716	0.410357	-0.492476	1	0.962781	12	-0.000202091
2	0	0	0	0	183.969	0.364705	0.364048	-0.462206	1	0.960573	12	-0.000168266
2	0	0	1	0	188.57	0.318694	0.318587	-0.420128	1	0.95854	12	-0.000133847
2	0	0	1	0	193.171	0.272683	0.271678	-0.379423	1	0.956699	12	-0.000103081
2	0	0	0	0	197.772	0.226672	0.226511	-0.34572	1	0.955032	12	-7.83095e-05
2	0	0	1	0	202.373	0.180662	0.180346	-0.31883	1	0.953505	12	-5.74997e-05
2	0	0	1	0	206.974	0.134651	0.134394	-0.299957	1	0.952082	12	-4.03126e-05
2	0	0	0	0	211.575	0.0886401	0.0888112	-0.287029	1	0.950732	12	-2.54914e-05
2	0	0	1	0	216.176	0.0426295	0.0415931	-0.279209	1	0.949429	12	-1.16132e-05
2	0	0	0	1	220.598	0.00151964	0.0017091	-0.268778	2	0.948204	12	-4.59369e-07
2	0	0	1	1	225.199	0.0475304	0.0473645	-0.155223	2	0.947265	12	-7.35205e-06
2	0	0	1	1	229.8	0.0935417	0.0933233	-0.0953763	2	0.946703	12	-8.90083e-06
2	0	0	0	1	234.401	0.139552	0.139622	-0.0587233	2	0.946356	12	-8.19905e-06
2	0	0	1	1	239.002	0.185563	0.186266	-0.0329814	2	0.946149	12	-6.1433e-06
2	0	0	1	1	243.603	0.231574	0.231682	-0.0114139	2	0.946049	12	-2.6444e-06
2	1	0	0	1	248.204	0.277584	0.277191	0.0149823	2	0.946056	12	4.15297e-06
2	1	0	1	1	252.805	0.323595	0.323689	0.0524501	2	0.946207	12	1.69775e-05
2	1	0	1	1	257.407	0.369606	0.368864	0.107025	2	0.946568	12	3.94777e-05
2	1	0	0	1	262.008	0.415617	0.415415	0.183239	2	0.947229	12	7.61203e-05
2	1	0	0	1	266.609	0.461628	0.461657	0.286451	2	0.948301	12	0.000132242
2	1	0	1	1	271.21	0.507638	0.50736	0.422597	2	0.94992	12	0.000214409
2	1	0	1	1	275.811	0.553648	0.554027	0.611524	2	0.952276	12	0.000338801
2	1	0	0	1	280.412	0.59966	0.5995	0.886083	2	0.955689	12	0.000531207
2	1	0	1	1	285.043	0.645971	0.646312	1.28053	2	0.960654	11	0.000827619
2	1	0	1	1	289.644	0.691982	0.690876	1.89466	2	0.967846	11	0.00130897
2	1	0	0	1	294.245	0.737992	0.737711	2.93348	2	0.978753	11	0.00216406
2	1	0	0	1	298.846	0.784003	0.783006	4.63116	2	0.995862	11	0.00362623
2	1	0	1	1	303.447	0.830014	0.829148	7.13311	2	1.02263	11	0.0059144
2	1	0	0	1	308.048	0.876025	0.875724	10.4418	2	1.06281	11	0.00914414
2	1	0	0	1	312.68	0.922336	0.921688	14.3601	2	1.12019	10	0.0132355
2	1	0	1	1	317.281	0.968346	0.968947	18.1209	2	1.19522	10	0.0175582
2	1	0	1	1	321.702	0.987451	0.987682	18.143	2	1.27959	10	0.0179195
2	1	0	0	1	326.303	0.94144	0.941294	13.26	2	1.35119	10	0.0124815
2	1	0	1	1	330.904	0.895429	0.895876	9.57594	2	1.40341	10	0.00857885
2	1	0	1	1	335.505	0.849419	0.8492	6.60752	2	1.44036	10	0.00561111
2	1	0	0	1	340.136	0.803108	0.803376	4.34804	2	1.46547	11	0.00349311
2	1	0	0	1	344.738	0.757097	0.756921	2.74404	2	1.48155	11	0.00207702
2	1	0	1	1	349.339	0.711086	0.711746	1.62579	2	1.49143	11	0.00115715
2	1	0	0	1	353.94	0.665075	0.663831	0.861033	2	1.49704	11	0.000571581
2	1	0	0	1	358.571	0.618764	0.618813	0.334236	2	1.49971	12	0.00020683
2	0	0	1	1	363.172	0.572754	0.572838	-0.0110729	2	1.5004	12	-6.34298e-06
2	0	0	1	1	367.773	0.526743	0.527971	-0.231311	2	1.4998	12	-0.000122126
2	0	0	0	1	372.374	0.480732	0.482016	-0.359206	2	1.4984	12	-0.000173143
2	0	0	1	1	376.975	0.434721	0.436214	-0.417325	2	1.49659	12	-0.000182043
2	0	0	1	1	381.576	0.38871	0.388309	-0.429389	2	1.49463	12	-0.000166735
2	0	0	0	1	386.177	0.3427	0.341491	-0.418566	2	1.49267	12	-0.000142936
2	0	0	0	1	390.778	0.296689	0.296477	-0.399477	2	1.49078	12	-0.000118436
2	0	0	1	1	395.379	0.250678	0.250534	-0.377533	2	1.48899	12	-9.45849e-05
2	0	0	1	1	399.98	0.204667	0.203603	-0.356575	2	1.48731	12	-7.25998e-05
2	0	0	0	1	404.582	0.158656	0.158781	-0.33856	2	1.48571	12	-5.37568e-05
2	0	0	1	1	409.183	0.112646	0.112506	-0.322744	2	1.48419	12	-3.63107e-05
2	0	0	1	1	413.784	0.0666349	0.0654685	-0.309404	2	1.48273	12	-2.02562e-05
2	0	0	0	1	418.385	0.0206241	0.022381	-0.298377	2	1.48133	12	-6.67796e-06
2	0	0	0	0	422.806	0.0235248	0.0237461	-0.219429	3	1.48012	12	-5.21058e-06
2	0	0	0	0	427.408	0.0695356	0.0695299	-0.135076	3	1.47933	12	-9.39185e-06
2	0	0	1	0	432.009	0.115546	0.116023	-0.0871417	3	1.47883	12	-1.01105e-05
2	0	0	1	0	436.61	0.161558	0.161951	-0.0558767	3	1.47851	12	-9.04931e-06
2	0	0	0	0	441.211	0.207568	0.208027	-0.0332564	3	1.47831	12	-6.91822e-06
2	1	0	1	0	445.812	0.253579	0.256155	-0.0124016	3	1.4782	12	-3.17674e-06
2	1	0	1	0	450.413	0.29959	0.299142	0.011554	3	1.4782	12	3.45628e-06
2	1	0	0	0	455.014	0.3456	0.344697	0.0442765	3	1.47832	12	1.5262e-05
2	1	0	1	0	459.615	0.391611	0.390519	0.0900029	3	1.47863	12	3.51478e-05
2	1	0	1	0	464.216	0.437622	0.437785	0.151823	3	1.47918	12	6.6466e-05
2	1	0	0	0	468.817	0.483633	0.483646	0.235423	3	1.48006	12	0.000113861
2	1	0	0	0	473.418	0.529644	0.528822	0.348542	3	1.4814	12	0.000184317
2	1	0	1	0	478.019	0.575654	0.575326	0.510633	3	1.48335	12	0.000293781
2	1	0	1	0	482.62	0.621665	0.62231	0.735869	3	1.4862	12	0.000457939
2	1	0	0	0	487.237	0.667826	0.66672	1.05833	3	1.4903	12	0.000705609
2	1	0	1	0	491.853	0.713987	0.714519	1.58856	3	1.49632	11	0.00113505
2	1	0	1	0	496.454	0.759998	0.759321	2.47178	3	1.50549	11	0.00187687
2	1	0	0	0	501.055	0.806008	0.805302	3.91393	3	1.51994	11	0.0031519
2	1	0	0	0	505.656	0.852019	0.850748	5.97937	3	1.54249	11	0.00508694
2	1	0	1	0	510.257	0.89803	0.897731	8.65475	3	1.57595	11	0.00776964
2	1	0	0	0	514.888	0.944341	0.944007	11.6285	3	1.6229	10	0.0109774
2	1	0	0	0	519.489	0.990352	0.989713	14.5416	3	1.68331	10	0.0143921
2	1	0	1	0	523.911	0.965446	0.965025	11.8118	3	1.74364	10	0.0113986
2	1	0	1	0	528.512	0.919435	0.91872	8.59373	3	1.79038	10	0.00789523
2	1	0	0	0	533.113	0.873424	0.873207	5.9568	3	1.8236	10	0.00520152
2	1	0	1	0	537.744	0.827113	0.827072	3.89706	3	1.8462	11	0.00322315
2	1	0	1	0	542.345	0.781102	0.781498	2.44646	3	1.86059	11	0.00191191
2	1	0	0	0	546.946	0.735092	0.735219	1.47027	3	1.86945	11	0.00108097
2	1	0	0	0	551.547	0.689081	0.689656	0.822484	3	1.87461	11	0.000567231
2	1	0	1	0	556.178	0.64277	0.642045	0.385239	3	1.87734	12	0.000247341
2	1	0	0	0	560.779	0.596759	0.595589	0.0961092	3	1.87839	12	5.72417e-05
2	0	0	0	0	565.38	0.550748	0.549993	-0.0978142	3	1.87836	12	-5.37972e-05
2	0	0	1	0	569.981	0.504738	0.503809	-0.223633	3	1.87759	12	-0.000112668
2	0	0	1	0	574.583	0.458727	0.458364	-0.297733	3	1.87637	12	-0.00013647
2	0	0	0	0	579.184	0.412716	0.411978	-0.333791	3	1.8749	12	-0.000137515
2	0	0	1	0	583.785	0.366705	0.368035	-0.345667	3	1.87333	12	-0.000127217
2	0	0	1	0	588.386	0.320694	0.321182	-0.345824	3	1.87174	12	-0.000111072
2	0	0	0	0	592.987	0.274684	0.273647	-0.340241	3	1.87016	12	-9.31057e-05
2	0	0	0	0	597.588	0.228673	0.228945	-0.331984	3	1.86861	12	-7.6006e-05
2	0	0	1	0	602.189	0.182662	0.183175	-0.322883	3	1.8671	12	-5.9144e-05
2	0	0	1	0	606.79	0.136651	0.136187	-0.313717	3	1.86564	12	-4.27241e-05
2	0	0	0	0	611.391	0.0906405	0.0902134	-0.304772	3	1.86421	12	-2.74945e-05
2	0	0	1	0	615.992	0.0446297	0.0441719	-0.295044	3	1.86283	12	-1.30326e-05
2	0	0	0	1	620.459	-3.07233e-05	-0.000758074	-0.280985	3	1.86153	12	2.13007e-07
2	0	0	1	1	625.015	-0.0455914	-0.0452871	-0.276677	3	1.86025	12	1.25299e-05
2	0	0	0	1	629.616	-0.0916023	-0.0923002	-0.270418	3	1.85899	12	2.49596e-05
2	0	0	0	1	634.217	-0.137613	-0.138262	-0.266647	3	1.85775	12	3.68672e-05
2	0	0	1	1	638.818	-0.183624	-0.183943	-0.264184	3	1.85653	12	4.85948e-05
2	0	0	0	1	640.912	-0.204579	-0.204971	-0.257066	3	1.85598	12	5.26912e-05