File: Data_1mg/2022_01_27 Ni60Co30Fe10Ox 1mg ref309_C05.mpt
EC-Lab ASCII FILE
Nb header lines : 63

Potentio Electrochemical Impedance Spectroscopy

Run on channel : 5 (SN 30436)
User :
CE vs. WE compliance from -10 V to 10 V
Electrode connection : standard
Potential control : Ewe
Ewe ctrl range : min = -10.00 V, max = 10.00 V
Safety Limits :
	Do not start on E overload
Acquisition started on : 01/27/2023 11:19:20.435
Loaded Setting File :  NONE
Saved on :
	File : 2022_01_27 Ni60Co30Fe10Ox 1mg ref309_C05.mpr
	Directory : C:\Users\grupogalan\Documents\EC-Lab\Data\Scott\
	Host : 169.254.104.159
Device : VSP (SN 1176)
Address : USB
EC-Lab for windows v11.46 (software)
Internet server v11.40 (firmware)
Command interpretor v11.40 (firmware)
Electrode material :
Initial state :
Electrolyte :
Comments :
Electrode surface area : 0.001 cm²
Characteristic mass : 0.001 g
Equivalent Weight : 0.000 g/eq.
Density : 0.000 g/cm3
Volume (V) : 0.001 cm³
Cycle Definition : Charge/Discharge alternance
Mode                Single sine
E (V)               0.0000
vs.                 Eoc
tE (h:m:s)          0:00:0.0000
record              0
dI                  0.000
unit dI             mA
dt (s)              0.000
fi                  200.000
unit fi             kHz
ff                  100.000
unit ff             mHz
Nd                  6
Points              per decade
spacing             Logarithmic
Va (mV)             10.0
pw                  0.10
Na                  2
corr                0
E range min (V)     -10.000
E range max (V)     10.000
I Range             Auto
Bandwidth           5
nc cycles           0
goto Ns'            0
nr cycles           0
inc. cycle          0

freq/Hz	Re(Z)/Ohm	-Im(Z)/Ohm	|Z|/Ohm	Phase(Z)/deg	time/s	<Ewe>/V	<I>/mA	Cs/µF	Cp/µF	cycle number	I Range	|Ewe|/V	|I|/A	Ns	(Q-Qo)/mA.h	Re(Y)/Ohm-1	Im(Y)/Ohm-1	|Y|/Ohm-1	Phase(Y)/deg	Re(C)/nF	Im(C)/nF	|C|/nF	Phase(C)/deg	Re(M)	Im(M)	|M|	Phase(M)/deg	Re(Permittivity)	Im(Permittivity)	|Permittivity|	Phase(Permittivity)/deg	Re(Resistivity)/Ohm.cm	Im(Resistivity)/Ohm.cm	|Resistivity|/Ohm.cm	Phase(Resistivity)/deg	Re(Conductivity)/mS/cm	Im(Conductivity)/mS/cm	|Conductivity|/mS/cm	Phase(Conductivity)/deg	Tan(Delta)	Loss Angle(Delta)/deg	dq/mA.h
199998	2.01486	-1.29782	2.39667	32.7865	2.7595	0.0612979	-0.188237	-0.61317	-0.179801	1	9	0.00834688	0.0034827	0	-3.72942e-05	0.350777	-0.225943	0.417246	-32.7865	-179.801	279.142	332.037	-122.786	0.0000000E+000	0.0000000E+000	0.0000000E+000	122.786	0.0000000E+000	0.0000000E+000	0.0000000E+000	-122.786	0.0000000E+000	0.0000000E+000	0.0000000E+000	32.7865	0.0000000E+000	0.0000000E+000	0.0000000E+000	-32.7865	-1.5525	-32.7865	-3.72942e-05
91291.2	1.61603	-0.101857	1.61924	3.60654	3.60348	0.0613009	-0.170478	-17.1159	-0.0677272	1	9	0.0103073	0.00636552	0	-8.77099e-05	0.616352	-0.0388483	0.617576	-3.60654	-67.7272	1074.53	1076.67	-93.6065	0.0000000E+000	0.0000000E+000	0.0000000E+000	93.6065	0.0000000E+000	0.0000000E+000	0.0000000E+000	-93.6065	0.0000000E+000	0.0000000E+000	0.0000000E+000	3.60654	0.0000000E+000	0.0000000E+000	0.0000000E+000	-3.60654	-15.8656	-3.60654	-1.81486e-05
41669.8	1.61002	0.200563	1.62247	-7.10083	4.58449	0.0613131	-0.167086	19.0436	0.291003	1	9	0.0098028	0.00604191	0	-0.000125839	0.611618	0.07619	0.616345	7.10083	291.003	2336.03	2354.09	-82.8992	0.0000000E+000	0.0000000E+000	0.0000000E+000	82.8992	0.0000000E+000	0.0000000E+000	0.0000000E+000	-82.8992	0.0000000E+000	0.0000000E+000	0.0000000E+000	-7.10083	0.0000000E+000	0.0000000E+000	0.0000000E+000	7.10083	8.02753	7.10083	-1.64677e-05
19020.9	1.7	0.535803	1.78244	-17.4937	5.42848	0.0611172	-0.164608	15.6165	1.41112	1	9	0.0104931	0.00588695	0	-0.000152539	0.535082	0.168646	0.561029	17.4937	1411.12	4477.22	4694.33	-72.5063	0.0000000E+000	0.0000000E+000	0.0000000E+000	72.5063	0.0000000E+000	0.0000000E+000	0.0000000E+000	-72.5063	0.0000000E+000	0.0000000E+000	0.0000000E+000	-17.4937	0.0000000E+000	0.0000000E+000	0.0000000E+000	17.4937	3.17281	17.4937	-1.7934e-05
8683.37	1.78533	1.08541	2.08938	-31.2981	6.01798	0.0613573	-0.186541	16.8864	4.55714	1	9	0.00967273	0.00462947	0	-0.000180357	0.408961	0.248634	0.478611	31.2981	4557.14	7495.73	8772.31	-58.7019	0.0000000E+000	0.0000000E+000	0.0000000E+000	58.7019	0.0000000E+000	0.0000000E+000	0.0000000E+000	-58.7019	0.0000000E+000	0.0000000E+000	0.0000000E+000	-31.2981	0.0000000E+000	0.0000000E+000	0.0000000E+000	31.2981	1.64483	31.2981	-1.45396e-05
3961.2	2.01855	2.23432	3.0111	-47.9044	6.89694	0.0613202	-0.13168	17.9824	9.9012	1	9	0.00922582	0.00306393	0	-0.000217078	0.222632	0.24643	0.332104	47.9044	9901.2	8945.03	13343.4	-42.0956	0.0000000E+000	0.0000000E+000	0.0000000E+000	42.0956	0.0000000E+000	0.0000000E+000	0.0000000E+000	-42.0956	0.0000000E+000	0.0000000E+000	0.0000000E+000	-47.9044	0.0000000E+000	0.0000000E+000	0.0000000E+000	47.9044	0.903429	47.9044	-1.5219e-05
1808.26	2.24988	4.36734	4.9128	-62.7442	8.29396	0.0614581	-0.0210648	20.1531	15.9264	1	10	0.0105035	0.00213798	0	-0.000257022	0.0932185	0.18095	0.20355	62.7442	15926.4	8204.65	17915.5	-27.2558	0.0000000E+000	0.0000000E+000	0.0000000E+000	27.2558	0.0000000E+000	0.0000000E+000	0.0000000E+000	-27.2558	0.0000000E+000	0.0000000E+000	0.0000000E+000	-62.7442	0.0000000E+000	0.0000000E+000	0.0000000E+000	62.7442	0.515161	62.7442	-1.53185e-05
825.264	2.56969	8.90228	9.26574	-73.8989	9.21667	0.061303	-0.0194822	21.6634	19.9972	1	10	0.00976145	0.0010535	0	-0.00026101	0.0299309	0.103691	0.107924	73.8989	19997.2	5772.28	20813.6	-16.1011	0.0000000E+000	0.0000000E+000	0.0000000E+000	16.1011	0.0000000E+000	0.0000000E+000	0.0000000E+000	-16.1011	0.0000000E+000	0.0000000E+000	0.0000000E+000	-73.8989	0.0000000E+000	0.0000000E+000	0.0000000E+000	73.8989	0.288655	73.8989	-2.06297e-06
377.051	3.42753	18.8605	19.1694	-79.7	10.1397	0.0613315	-0.0217545	22.3803	21.6648	1	10	0.00976246	0.000509272	0	-0.000266298	0.00932745	0.0513257	0.0521664	79.7	21664.8	3937.16	22019.7	-10.3	0.0000000E+000	0.0000000E+000	0.0000000E+000	10.3	0.0000000E+000	0.0000000E+000	0.0000000E+000	-10.3	0.0000000E+000	0.0000000E+000	0.0000000E+000	-79.7	0.0000000E+000	0.0000000E+000	0.0000000E+000	79.7	0.181731	79.7	-2.33563e-06
172.037	4.94134	39.8888	40.1937	-82.9383	11.3084	0.0613527	-0.00312391	23.1925	22.842	1	11	0.00985423	0.000245169	0	-0.000270068	0.00305865	0.0246908	0.0248796	82.9383	22842	2829.62	23016.6	-7.06171	0.0000000E+000	0.0000000E+000	0.0000000E+000	7.06171	0.0000000E+000	0.0000000E+000	0.0000000E+000	-7.06171	0.0000000E+000	0.0000000E+000	0.0000000E+000	-82.9383	0.0000000E+000	0.0000000E+000	0.0000000E+000	82.9383	0.123878	82.9383	-1.80899e-06
78.5176	11.1434	81.4166	82.1756	-82.2064	12.2355	0.0613428	-0.00276042	24.8966	24.4388	1	11	0.0095752	0.000116521	0	-0.000270753	0.00165018	0.0120567	0.0121691	82.2064	24438.8	3344.91	24666.6	-7.79358	0.0000000E+000	0.0000000E+000	0.0000000E+000	7.79358	0.0000000E+000	0.0000000E+000	0.0000000E+000	-7.79358	0.0000000E+000	0.0000000E+000	0.0000000E+000	-82.2064	0.0000000E+000	0.0000000E+000	0.0000000E+000	82.2064	0.136869	82.2064	-3.7722e-07
35.8372	21.2684	170.898	172.216	-82.906	13.1641	0.0614935	-0.0025097	25.9866	25.5903	1	11	0.0097095	5.63797e-05	0	-0.000271415	0.000717111	0.0057622	0.00580665	82.906	25590.3	3184.73	25787.7	-7.09404	0.0000000E+000	0.0000000E+000	0.0000000E+000	7.09404	0.0000000E+000	0.0000000E+000	0.0000000E+000	-7.09404	0.0000000E+000	0.0000000E+000	0.0000000E+000	-82.906	0.0000000E+000	0.0000000E+000	0.0000000E+000	82.906	0.124451	82.906	-2.72401e-07
16.367	52.7869	350.485	354.438	-81.435	14.323	0.0613884	-0.000241711	27.7448	27.1294	1	12	0.00980096	2.76521e-05	0	-0.000271676	0.000420189	0.0027899	0.00282137	81.435	27129.4	4085.98	27435.4	-8.56499	0.0000000E+000	0.0000000E+000	0.0000000E+000	8.56499	0.0000000E+000	0.0000000E+000	0.0000000E+000	-8.56499	0.0000000E+000	0.0000000E+000	0.0000000E+000	-81.435	0.0000000E+000	0.0000000E+000	0.0000000E+000	81.435	0.150611	81.435	-2.57817e-08
7.46893	74.8984	753.585	757.298	-84.324	15.0736	0.0613387	-0.000686808	28.2767	28.0001	1	12	0.0094094	1.2425e-05	0	-0.000271788	0.000130599	0.00131401	0.00132048	84.324	28000.1	2782.92	28138.1	-5.67596	0.0000000E+000	0.0000000E+000	0.0000000E+000	5.67596	0.0000000E+000	0.0000000E+000	0.0000000E+000	-5.67596	0.0000000E+000	0.0000000E+000	0.0000000E+000	-84.324	0.0000000E+000	0.0000000E+000	0.0000000E+000	84.324	0.0993894	84.324	9.35495e-08
5.04683	191.571	1032.47	1050.09	-79.4885	15.7849	0.0616355	-3.10985e-05	30.5439	29.5274	1	13	0.00976534	9.29954e-06	0	-0.000271887	0.000173731	0.000936319	0.0009523	79.4885	29527.4	5478.72	30031.4	-10.5115	0.0000000E+000	0.0000000E+000	0.0000000E+000	10.5115	0.0000000E+000	0.0000000E+000	0.0000000E+000	-10.5115	0.0000000E+000	0.0000000E+000	0.0000000E+000	-79.4885	0.0000000E+000	0.0000000E+000	0.0000000E+000	79.4885	0.185547	79.4885	-9.91398e-08