File: Data_1mg/2023_01_31_Co45Ni45Fe10Nx 1mg ref309_02_CV_C05.mpt
EC-Lab ASCII FILE
Nb header lines : 57

Cyclic Voltammetry

Run on channel : 5 (SN 30436)
User :
CE vs. WE compliance from -10 V to 10 V
Electrode connection : standard
Potential control : Ewe
Ewe ctrl range : min = -10.00 V, max = 10.00 V
Safety Limits :
	Do not start on E overload
Acquisition started on : 01/31/2023 13:05:58.350
Loaded Setting File :  C:\Users\grupogalan\Documents\EC-Lab\Data\Scott\_cyclic_pause_tafel_CA.mps
Saved on :
	File : 2023_01_31_Co45Ni45Fe10Nx 1mg ref309_02_CV_C05.mpr
	Directory : C:\Users\grupogalan\Documents\EC-Lab\Data\Scott\
	Host : 169.254.104.159
Device : VSP (SN 1176)
Address : USB
EC-Lab for windows v11.46 (software)
Internet server v11.40 (firmware)
Command interpretor v11.40 (firmware)
Electrode material :
Initial state :
Electrolyte :
Comments :
Electrode surface area : 0.001 cm²
Characteristic mass : 0.001 g
Equivalent Weight : 0.000 g/eq.
Density : 0.000 g/cm3
Volume (V) : 0.001 cm³
Cycle Definition : Charge/Discharge alternance
Ei (V)              0.000
vs.                 Eoc
dE/dt               10.000
dE/dt unit          mV/s
E1 (V)              1.000
vs.                 Ref
Step percent        50
N                   10
E range min (V)     -10.000
E range max (V)     10.000
I Range             Auto
I Range min         Unset
I Range max         Unset
I Range init        Unset
Bandwidth           5
E2 (V)              0.000
vs.                 Ref
nc cycles           2
Reverse Scan        0
Ef (V)              0.000
vs.                 Eoc

mode	ox/red	error	control changes	counter inc.	time/s	control/V	Ewe/V	<I>/mA	cycle number	(Q-Qo)/C	I Range	P/W
2	1	0	1	0	80.9984	-0.156489	-0.155237	0.0986948	1	0.0000000E+000	13	-1.53211e-05
2	1	0	1	0	85.509	-0.111384	-0.111544	0.00111603	1	4.9659e-06	12	-1.24486e-07
2	0	0	0	0	90.1272	-0.065201	-0.0653203	0.00250392	1	1.56788e-05	12	-1.63557e-07
2	1	0	1	0	94.7455	-0.0190178	-0.0194397	0.00277383	1	3.03752e-05	12	-5.39224e-08
2	1	0	1	0	99.3637	0.0271637	0.0273152	0.00328148	1	4.71939e-05	12	8.96343e-08
2	1	0	0	0	103.982	0.0733466	0.0729685	0.00377088	1	6.63642e-05	12	2.75155e-07
2	1	0	1	0	108.6	0.119529	0.119717	0.00578408	1	9.00971e-05	12	6.92456e-07
2	1	0	1	0	113.219	0.165712	0.165541	0.0135383	1	0.000135806	12	2.24115e-06
2	1	0	1	0	117.837	0.211893	0.211717	0.0180941	1	0.000213737	12	3.83083e-06
2	1	0	1	0	122.455	0.258077	0.257727	0.0231663	1	0.000311111	12	5.97059e-06
2	1	0	1	0	127.073	0.30426	0.30406	0.0397641	1	0.000452338	12	1.20907e-05
2	1	0	1	0	131.692	0.350442	0.350333	0.104658	1	0.000759454	12	3.66653e-05
2	1	0	1	0	136.31	0.396624	0.396692	0.33037	1	0.00168371	12	0.000131055
2	1	0	0	0	140.928	0.442807	0.442596	0.806284	1	0.00424352	12	0.000356858
2	1	0	1	0	145.577	0.489298	0.489204	1.40909	1	0.0094117	11	0.000689333
2	1	0	1	0	150.195	0.535479	0.536035	1.91523	1	0.0171994	11	0.00102663
2	1	0	0	0	154.814	0.581662	0.581827	2.21092	1	0.0268394	11	0.00128638
2	1	0	1	0	159.432	0.627845	0.627714	2.63191	1	0.037798	11	0.00165208
2	1	0	1	0	164.05	0.674028	0.673554	5.39	1	0.0548641	11	0.00363046
2	1	0	1	0	168.668	0.720209	0.720108	12.1843	1	0.094202	10	0.00877401
2	1	0	1	0	173.287	0.766393	0.76682	21.5236	1	0.17158	10	0.0165048
2	1	0	1	0	177.905	0.812576	0.812414	31.6879	1	0.294721	10	0.0257437
2	1	0	1	0	182.523	0.858758	0.858793	41.7458	1	0.463982	10	0.035851
2	1	0	1	0	187.141	0.90494	0.904797	53.9847	1	0.684932	10	0.0488452
2	1	0	0	0	191.76	0.951123	0.951221	68.8006	1	0.968275	10	0.0654446
2	1	0	1	0	196.378	0.997306	0.996597	85.6514	1	1.3244	10	0.0853599
2	1	0	1	0	200.504	0.961284	0.961375	74.438	1	1.65825	10	0.0715628
2	1	0	1	0	205.122	0.9151	0.915271	59.9367	1	1.9677	10	0.0548583
2	1	0	1	0	209.741	0.868917	0.868948	46.1245	1	2.21184	10	0.0400798
2	1	0	1	0	214.359	0.822736	0.823535	34.0026	1	2.39611	10	0.0280023
2	1	0	1	0	218.977	0.776553	0.776992	23.5089	1	2.52808	10	0.0182662
2	1	0	0	0	223.595	0.73037	0.729964	14.8071	1	2.61575	10	0.0108086
2	1	0	1	0	228.214	0.684187	0.684297	7.96389	1	2.66747	10	0.00544966
2	1	0	1	0	232.863	0.637698	0.637672	3.19368	1	2.69243	11	0.00203652
2	1	0	0	0	237.481	0.591515	0.591373	0.698287	1	2.70049	11	0.000412948
2	0	0	1	0	242.13	0.545024	0.545307	-0.00897606	1	2.70159	12	-4.89471e-06
2	0	0	1	0	246.748	0.498842	0.499188	-0.124784	1	2.70118	12	-6.22907e-05
2	0	0	1	0	251.366	0.45266	0.452604	-0.160379	1	2.70048	12	-7.2588e-05
2	0	0	1	0	255.985	0.406477	0.40678	-0.191493	1	2.69964	12	-7.78954e-05
2	0	0	0	0	260.603	0.360294	0.360386	-0.245676	1	2.69862	12	-8.85383e-05
2	0	0	1	0	265.221	0.314112	0.313683	-0.329552	1	2.69726	12	-0.000103375
2	0	0	1	0	269.839	0.267929	0.268408	-0.319076	1	2.69572	12	-8.56425e-05
2	0	0	0	0	274.458	0.221747	0.221642	-0.246058	1	2.69439	12	-5.45368e-05
2	0	0	1	0	279.076	0.175564	0.175238	-0.183371	1	2.69341	12	-3.21335e-05
2	0	0	1	0	283.694	0.129382	0.129875	-0.145582	1	2.69265	12	-1.89075e-05
2	0	0	0	0	288.312	0.0831989	0.0827855	-0.121395	1	2.69204	12	-1.00497e-05
2	0	0	1	0	292.931	0.0370164	0.0369333	-0.106391	1	2.69151	12	-3.92937e-06
2	0	0	0	1	297.118	0.00468859	0.00439189	-0.0921599	2	2.69109	12	-4.04756e-07
2	0	0	1	1	301.737	0.0508711	0.0509116	-0.0672499	2	2.69073	12	-3.4238e-06
2	0	0	1	1	306.355	0.0970541	0.0967979	-0.0526067	2	2.69045	12	-5.09222e-06
2	0	0	1	1	311.004	0.143544	0.142997	-0.0405404	2	2.69024	13	-5.79714e-06
2	0	0	1	1	315.622	0.189727	0.189583	-0.0294107	2	2.69008	13	-5.57579e-06
2	0	0	0	1	320.24	0.235909	0.235411	-0.0138446	2	2.68998	13	-3.25918e-06
2	1	0	1	1	324.859	0.282092	0.282481	0.016727	2	2.68999	13	4.72506e-06
2	1	0	1	1	329.508	0.328582	0.328402	0.0987973	2	2.69023	12	3.24452e-05
2	1	0	0	1	334.126	0.374765	0.374399	0.289903	2	2.6911	12	0.00010854
2	1	0	1	1	338.744	0.420948	0.420468	0.521326	2	2.693	12	0.000219201
2	1	0	1	1	343.362	0.46713	0.467166	0.663736	2	2.69582	12	0.000310075
2	1	0	0	1	347.981	0.513312	0.513752	0.643942	2	2.69891	12	0.000330826
2	1	0	1	1	352.599	0.559495	0.55981	0.595977	2	2.70178	12	0.000333634
2	1	0	1	1	357.217	0.605678	0.605998	0.934546	2	2.705	12	0.000566333
2	1	0	1	1	361.866	0.652168	0.651868	3.0168	2	2.7133	11	0.00196656
2	1	0	1	1	366.485	0.69835	0.697707	7.6569	2	2.73707	11	0.00534227
2	1	0	0	1	371.134	0.744841	0.745055	14.7739	2	2.78834	10	0.0110074
2	1	0	1	1	375.752	0.791024	0.790748	24.1494	2	2.87765	10	0.0190961
2	1	0	1	1	380.37	0.837205	0.836644	35.3135	2	3.01437	10	0.0295448
2	1	0	0	1	384.988	0.883389	0.884	48.2115	2	3.20694	10	0.0426189
2	1	0	1	1	389.607	0.929571	0.929968	63.0974	2	3.46406	10	0.0586785
2	1	0	1	1	394.225	0.975754	0.975996	78.1494	2	3.79039	10	0.0762736
2	1	0	1	1	398.351	0.982835	0.98275	79.5802	2	4.13071	10	0.0782075
2	1	0	0	1	402.969	0.936652	0.936622	64.0489	2	4.45984	10	0.0599896
2	1	0	1	1	407.587	0.890469	0.890731	49.2556	2	4.7205	10	0.0438734
2	1	0	1	1	412.206	0.844288	0.844537	36.3812	2	4.91732	10	0.0307253
2	1	0	0	1	416.824	0.798105	0.798025	25.4833	2	5.05919	10	0.0203363
2	1	0	1	1	421.442	0.751922	0.752504	16.7239	2	5.15607	10	0.0125848
2	1	0	1	1	426.06	0.70574	0.705219	9.64612	2	5.2161	10	0.00680263
2	1	0	1	1	430.694	0.659404	0.659666	4.55389	2	5.24813	10	0.00300405
2	1	0	1	1	435.328	0.613067	0.613287	1.46531	2	5.26129	11	0.000898657
2	1	0	0	1	439.977	0.566576	0.566591	0.168368	2	5.26444	12	9.5396e-05
2	0	0	1	1	444.595	0.520394	0.520406	-0.107835	2	5.26436	12	-5.61178e-05
2	0	0	1	1	449.213	0.474212	0.47382	-0.159091	2	5.26369	12	-7.53804e-05
2	0	0	0	1	453.832	0.428029	0.428311	-0.183444	2	5.26287	12	-7.85713e-05
2	0	0	1	1	458.45	0.381845	0.381614	-0.226606	2	5.26191	12	-8.64762e-05
2	0	0	1	1	463.068	0.335664	0.33568	-0.306923	2	5.26068	12	-0.000103028
2	0	0	0	1	467.686	0.289481	0.289603	-0.34429	2	5.25912	12	-9.97075e-05
2	0	0	1	1	472.305	0.243298	0.243249	-0.289215	2	5.25762	12	-7.03512e-05
2	0	0	1	1	476.923	0.197116	0.196811	-0.209886	2	5.25647	12	-4.1308e-05
2	0	0	1	1	481.541	0.150934	0.150748	-0.158202	2	5.25562	12	-2.38487e-05
2	0	0	1	1	486.159	0.104751	0.104749	-0.12704	2	5.25497	12	-1.33073e-05
2	0	0	1	1	490.778	0.0585673	0.0584202	-0.106508	2	5.25443	12	-6.2222e-06
2	0	0	1	1	495.396	0.0123859	0.0124283	-0.0926434	2	5.25397	12	-1.1514e-06
2	0	0	0	0	499.584	0.0293193	0.0290256	-0.0696978	3	5.25363	12	-2.02302e-06
2	0	0	1	0	504.202	0.0755018	0.0756358	-0.0535759	3	5.25335	12	-4.05226e-06
2	0	0	1	0	508.82	0.121683	0.121564	-0.042486	3	5.25313	12	-5.16476e-06
2	0	0	0	0	513.438	0.167867	0.168246	-0.0326162	3	5.25296	12	-5.48756e-06
2	0	0	1	0	518.057	0.21405	0.214543	-0.0215513	3	5.25284	12	-4.62368e-06
2	0	0	1	0	522.675	0.260232	0.260435	-0.00279474	3	5.25278	12	-7.27846e-07
2	1	0	0	0	527.293	0.306415	0.306251	0.0389524	3	5.25285	12	1.19292e-05
2	1	0	1	0	531.911	0.352597	0.35201	0.157173	3	5.25327	12	5.53265e-05
2	1	0	1	0	536.53	0.39878	0.39904	0.359794	3	5.25447	12	0.000143572
2	1	0	1	0	541.148	0.444961	0.445127	0.552162	3	5.25661	12	0.000245783
2	1	0	1	0	545.766	0.491145	0.491532	0.615527	3	5.2594	12	0.000302551
2	1	0	1	0	550.384	0.537328	0.537501	0.555052	3	5.26215	12	0.000298341
2	1	0	1	0	555.003	0.58351	0.583417	0.577268	3	5.26468	12	0.000336788
2	1	0	1	0	559.621	0.629692	0.629447	1.52761	3	5.26894	11	0.00096155
2	1	0	0	0	564.239	0.675875	0.676337	4.47981	3	5.28203	11	0.00302986
2	1	0	1	0	568.857	0.722058	0.722006	9.61944	3	5.31385	11	0.00694529
2	1	0	1	0	573.476	0.768239	0.768268	17.018	3	5.37461	10	0.0130744
2	1	0	0	0	578.094	0.814422	0.814566	26.4789	3	5.47439	10	0.0215688
2	1	0	1	0	582.712	0.860605	0.860416	37.8575	3	5.62244	10	0.0325732
2	1	0	1	0	587.33	0.906788	0.907196	50.9013	3	5.827	10	0.0461775
2	1	0	0	0	591.949	0.95297	0.953203	65.1354	3	6.09479	10	0.0620872
2	1	0	1	0	596.521	0.998691	0.998964	79.7402	3	6.4264	10	0.0796576
2	1	0	1	0	600.816	0.958204	0.958003	66.0733	3	6.73974	10	0.0632984
2	1	0	1	0	605.434	0.912021	0.911746	52.0803	3	7.01329	10	0.047484
2	1	0	1	0	610.053	0.86584	0.865558	38.9428	3	7.22259	10	0.0337072
2	1	0	1	0	614.671	0.819657	0.819902	27.9333	3	7.37673	10	0.0229025
2	1	0	1	0	619.289	0.773473	0.773811	18.4083	3	7.48284	10	0.0142446
2	1	0	1	0	623.907	0.727292	0.726966	11.0052	3	7.54985	10	0.0080004
2	1	0	1	0	628.526	0.681109	0.681043	5.665	3	7.58748	10	0.00385811
2	1	0	0	0	633.175	0.634618	0.634373	2.25352	3	7.60513	11	0.00142957
2	1	0	1	0	637.793	0.588435	0.588411	0.514627	3	7.61089	11	0.000302812
2	0	0	1	0	642.442	0.541946	0.541293	-0.0319088	3	7.61167	12	-1.7272e-05
2	0	0	0	0	647.06	0.495763	0.495932	-0.131872	3	7.6112	12	-6.53995e-05
2	0	0	1	0	651.679	0.44958	0.449601	-0.160333	3	7.6105	12	-7.20858e-05
2	0	0	1	0	656.297	0.403397	0.403924	-0.190863	3	7.60967	12	-7.70942e-05
2	0	0	1	0	660.915	0.357216	0.357485	-0.244617	3	7.60866	12	-8.74467e-05
2	0	0	1	0	665.533	0.311033	0.311023	-0.311858	3	7.60734	12	-9.69952e-05
2	0	0	0	0	670.152	0.26485	0.264841	-0.298469	3	7.60589	12	-7.90468e-05
2	0	0	1	0	674.77	0.218668	0.218178	-0.228859	3	7.60466	12	-4.9932e-05
2	0	0	1	0	679.388	0.172485	0.172653	-0.169331	3	7.60375	12	-2.92355e-05
2	0	0	0	0	684.006	0.126303	0.126074	-0.133141	3	7.60305	12	-1.67855e-05
2	0	0	1	0	688.625	0.0801194	0.0803699	-0.110032	3	7.60249	12	-8.84323e-06
2	0	0	1	0	693.243	0.033938	0.0339633	-0.0938449	3	7.60202	12	-3.18728e-06
2	0	0	0	0	696.621	-8.36053e-05	0.000219945	-0.0890439	3	7.60171	12	-1.95848e-08