File: Data_1mg/2023_01_31_Co45Ni45Fe10Nx 1mg ref309_04_CP_C05.mpt
EC-Lab ASCII FILE
Nb header lines : 53

Chronopotentiometry

Run on channel : 5 (SN 30436)
User :
CE vs. WE compliance from -10 V to 10 V
Electrode connection : standard
Potential control : Ewe
Ewe ctrl range : min = -10.00 V, max = 10.00 V
Safety Limits :
	Do not start on E overload
Acquisition started on : 01/31/2023 13:05:58.350
Loaded Setting File :  C:\Users\grupogalan\Documents\EC-Lab\Data\Scott\_cyclic_pause_tafel_CA.mps
Saved on :
	File : 2023_01_31_Co45Ni45Fe10Nx 1mg ref309_04_CP_C05.mpr
	Directory : C:\Users\grupogalan\Documents\EC-Lab\Data\Scott\
	Host : 169.254.104.159
Device : VSP (SN 1176)
Address : USB
EC-Lab for windows v11.46 (software)
Internet server v11.40 (firmware)
Command interpretor v11.40 (firmware)
Electrode material :
Initial state :
Electrolyte :
Comments :
Electrode surface area : 0.001 cm²
Characteristic mass : 0.001 g
Equivalent Weight : 0.000 g/eq.
Density : 0.000 g/cm3
Volume (V) : 0.001 cm³
Cycle Definition : Charge/Discharge alternance
Ns                  0                   1                   2                   3                   4                   5                   6                   7                   8                   9                   10                  11                  12
Is                  10.000              18.000              32.000              56.000              100.000             178.000             316.000             562.000             1.000               1.778               3.162               5.623               10.000
unit Is             µA                  µA                  µA                  µA                  µA                  µA                  µA                  µA                  mA                  mA                  mA                  mA                  mA
vs.                 <None>              <None>              <None>              <None>              <None>              <None>              <None>              <None>              <None>              <None>              <None>              <None>              <None>
ts (h:m:s)          0:03:0.0000         0:03:0.0000         0:03:0.0000         0:03:0.0000         0:03:0.0000         0:03:0.0000         0:03:0.0000         0:03:0.0000         0:03:0.0000         0:03:0.0000         0:03:0.0000         0:03:0.0000         0:03:0.0000
EM (V)              pass                pass                pass                pass                pass                pass                pass                pass                pass                pass                pass                pass                pass
dQM                 500.000             900.000             1.600               2.800               5.000               8.900               15.800              28.100              50.000              88.900              158.100             281.150             500.000
unit dQM            nA.h                nA.h                µA.h                µA.h                µA.h                µA.h                µA.h                µA.h                µA.h                µA.h                µA.h                µA.h                µA.h
record              <Ewe>               <Ewe>               <Ewe>               <Ewe>               <Ewe>               <Ewe>               <Ewe>               <Ewe>               <Ewe>               <Ewe>               <Ewe>               <Ewe>               <Ewe>
dEs (mV)            0.00                0.00                0.00                0.00                0.00                0.00                0.00                0.00                0.00                0.00                0.00                0.00                0.00
dts (s)             1.0000              1.0000              1.0000              1.0000              1.0000              1.0000              1.0000              1.0000              1.0000              1.0000              1.0000              1.0000              1.0000
E range min (V)     -10.000             -10.000             -10.000             -10.000             -10.000             -10.000             -10.000             -10.000             -10.000             -10.000             -10.000             -10.000             -10.000
E range max (V)     10.000              10.000              10.000              10.000              10.000              10.000              10.000              10.000              10.000              10.000              10.000              10.000              10.000
I Range             10 mA               10 mA               10 mA               10 mA               10 mA               10 mA               10 mA               10 mA               10 mA               10 mA               10 mA               10 mA               10 mA
Bandwidth           5                   5                   5                   5                   5                   5                   5                   5                   5                   5                   5                   5                   5
goto Ns'            0                   0                   0                   0                   0                   0                   0                   0                   0                   0                   0                   0                   0
nc cycles           0                   0                   0                   0                   0                   0                   0                   0                   0                   0                   0                   0                   0

mode	ox/red	error	control changes	Ns changes	counter inc.	Ns	time/s	control/mA	<Ewe>/V	I/mA	dQ/C	(Q-Qo)/C	half cycle	Q charge/discharge/mA.h	I Range	Energy charge/W.h	Energy discharge/W.h	Capacitance charge/µF	Capacitance discharge/µF	Q discharge/mA.h	Q charge/mA.h	Capacity/mA.h	Efficiency/%	cycle number	P/W
1	1	0	1	0	0	0	731.781	0.01	0.315329	0.010312	8.89795e-06	8.89795e-06	0	2.47165e-06	11	7.79384e-10	0.000000000000000E+000	0.000000000000000E+000	0.000000000000000E+000	0.000000000000000E+000	2.47165e-06	2.47165e-06	0.0000000E+000	0.000000000000000E+000	3.25168e-06
1	1	0	1	0	0	0	788.781	0.01	0.33355	0.00961214	0.000535762	0.000535762	0	0.000148823	11	4.88039e-08	0.000000000000000E+000	29403.1	0.000000000000000E+000	0.000000000000000E+000	0.000148823	0.000148823	0.0000000E+000	0.000000000000000E+000	3.20613e-06
1	1	0	1	0	0	0	845.781	0.01	0.333823	0.00878497	0.00105872	0.00105872	0	0.000294089	11	9.74073e-08	0.000000000000000E+000	57247.1	0.000000000000000E+000	0.000000000000000E+000	0.000294089	0.000294089	0.0000000E+000	0.000000000000000E+000	2.93262e-06
1	1	0	1	0	0	0	902.781	0.01	0.323608	0.0084032	0.0015814	0.0015814	0	0.000439277	11	1.45236e-07	0.000000000000000E+000	191009	0.000000000000000E+000	0.000000000000000E+000	0.000439277	0.000439277	0.0000000E+000	0.000000000000000E+000	2.71934e-06
1	1	0	0	0	0	1	958.833	0.018	0.325105	0.0165476	0.000788174	0.00244307	0	0.000678631	11	2.23455e-07	0.000000000000000E+000	249910	0.000000000000000E+000	0.000000000000000E+000	0.000678631	0.000678631	0.0000000E+000	0.000000000000000E+000	5.37969e-06
1	1	0	0	0	0	1	1015.83	0.018	0.312123	0.0157204	0.00172588	0.00338077	0	0.000939104	11	3.06502e-07	0.000000000000000E+000	1.05454e+06	0.000000000000000E+000	0.000000000000000E+000	0.000939104	0.000939104	0.0000000E+000	0.000000000000000E+000	4.9067e-06
1	1	0	0	0	0	1	1072.83	0.018	0.297372	0.0162294	0.00266342	0.00431832	0	0.00119953	11	3.85823e-07	0.000000000000000E+000	240481	0.000000000000000E+000	0.000000000000000E+000	0.00119953	0.00119953	0.0000000E+000	0.000000000000000E+000	4.82618e-06
1	1	0	1	0	0	2	1128.83	0.032	0.312134	0.0300367	0.00116202	0.00577612	0	0.00160448	11	5.09799e-07	0.000000000000000E+000	1.8079e+06	0.000000000000000E+000	0.000000000000000E+000	0.00160448	0.00160448	0.0000000E+000	0.000000000000000E+000	9.37547e-06
1	1	0	1	0	0	2	1185.83	0.032	0.311529	0.0304821	0.00290682	0.00752093	0	0.00208915	11	6.61177e-07	0.000000000000000E+000	1.97934e+06	0.000000000000000E+000	0.000000000000000E+000	0.00208915	0.00208915	0.0000000E+000	0.000000000000000E+000	9.49606e-06
1	1	0	1	0	0	2	1242.83	0.032	0.307382	0.0308002	0.00465239	0.00926649	0	0.00257402	11	8.11262e-07	0.000000000000000E+000	1.16608e+06	0.000000000000000E+000	0.000000000000000E+000	0.00257402	0.00257402	0.0000000E+000	0.000000000000000E+000	9.46744e-06
1	1	0	0	0	0	3	1298.83	0.056	0.348001	0.055297	0.00153684	0.0116604	0	0.00323899	11	1.02806e-06	0.000000000000000E+000	356886	0.000000000000000E+000	0.000000000000000E+000	0.00323899	0.00323899	0.0000000E+000	0.000000000000000E+000	1.92434e-05
1	1	0	0	0	0	3	1355.83	0.056	0.366437	0.0551697	0.00466506	0.0147886	0	0.00410794	11	1.33958e-06	0.000000000000000E+000	289360	0.000000000000000E+000	0.000000000000000E+000	0.00410794	0.00410794	0.0000000E+000	0.000000000000000E+000	2.02162e-05
1	1	0	0	0	0	3	1412.83	0.056	0.378255	0.0545334	0.00779399	0.0179175	0	0.00497709	11	1.66345e-06	0.000000000000000E+000	284737	0.000000000000000E+000	0.000000000000000E+000	0.00497709	0.00497709	0.0000000E+000	0.000000000000000E+000	2.06276e-05
1	1	0	1	0	0	4	1468.83	0.1	0.410054	0.0980549	0.0017731	0.0217763	0	0.00604899	11	2.08327e-06	0.000000000000000E+000	229889	0.000000000000000E+000	0.000000000000000E+000	0.00604899	0.00604899	0.0000000E+000	0.000000000000000E+000	4.02079e-05
1	1	0	1	0	0	4	1525.83	0.1	0.439804	0.0985003	0.00738783	0.0273911	0	0.00760863	11	2.74768e-06	0.000000000000000E+000	220052	0.000000000000000E+000	0.000000000000000E+000	0.00760863	0.00760863	0.0000000E+000	0.000000000000000E+000	4.33209e-05
1	1	0	1	0	0	4	1582.83	0.1	0.468537	0.0993275	0.0130003	0.0330036	0	0.00916765	11	3.4557e-06	0.000000000000000E+000	215417	0.000000000000000E+000	0.000000000000000E+000	0.00916765	0.00916765	0.0000000E+000	0.000000000000000E+000	4.65386e-05
1	1	0	0	0	0	5	1638.83	0.178	0.534345	0.177144	0.00141514	0.0391443	0	0.0108734	11	4.2939e-06	0.000000000000000E+000	178728	0.000000000000000E+000	0.000000000000000E+000	0.0108734	0.0108734	0.0000000E+000	0.000000000000000E+000	9.46563e-05
1	1	0	0	0	0	5	1695.83	0.178	0.570668	0.177017	0.0114958	0.049225	0	0.0136736	11	5.86795e-06	0.000000000000000E+000	192782	0.000000000000000E+000	0.000000000000000E+000	0.0136736	0.0136736	0.0000000E+000	0.000000000000000E+000	0.000101018
1	1	0	0	0	0	5	1752.83	0.178	0.573323	0.17689	0.021576	0.0593051	0	0.0164736	11	7.47031e-06	0.000000000000000E+000	229870	0.000000000000000E+000	0.000000000000000E+000	0.0164736	0.0164736	0.0000000E+000	0.000000000000000E+000	0.000101415
1	1	0	0	0	0	5	1809.83	0.178	0.574116	0.176572	0.031657	0.0693862	0	0.0192739	11	9.07698e-06	0.000000000000000E+000	268120	0.000000000000000E+000	0.000000000000000E+000	0.0192739	0.0192739	0.0000000E+000	0.000000000000000E+000	0.000101373
1	1	0	1	0	0	6	1865.83	0.316	0.593992	0.314008	0.0172937	0.0868568	0	0.0241269	11	1.19578e-05	0.000000000000000E+000	311691	0.000000000000000E+000	0.000000000000000E+000	0.0241269	0.0241269	0.0000000E+000	0.000000000000000E+000	0.000186518
1	1	0	1	0	0	6	1922.83	0.316	0.594398	0.314708	0.0352181	0.104781	0	0.0291059	11	1.49163e-05	0.000000000000000E+000	375466	0.000000000000000E+000	0.000000000000000E+000	0.0291059	0.0291059	0.0000000E+000	0.000000000000000E+000	0.000187062
1	1	0	1	0	0	6	1979.83	0.316	0.594943	0.314453	0.0531437	0.122707	0	0.0340852	11	1.78771e-05	0.000000000000000E+000	438844	0.000000000000000E+000	0.000000000000000E+000	0.0340852	0.0340852	0.0000000E+000	0.000000000000000E+000	0.000187082
1	1	0	0	0	0	7	2035.83	0.562	0.6166	0.56063	0.0252239	0.15139	0	0.0420527	11	2.27677e-05	0.000000000000000E+000	502503	0.000000000000000E+000	0.000000000000000E+000	0.0420527	0.0420527	0.0000000E+000	0.000000000000000E+000	0.000345684
1	1	0	0	0	0	7	2092.83	0.562	0.616986	0.560502	0.057174	0.18334	0	0.0509278	11	2.82407e-05	0.000000000000000E+000	607776	0.000000000000000E+000	0.000000000000000E+000	0.0509278	0.0509278	0.0000000E+000	0.000000000000000E+000	0.000345822
1	1	0	0	0	0	7	2149.83	0.562	0.617432	0.560757	0.0891229	0.215289	0	0.0598024	11	3.37181e-05	0.000000000000000E+000	712634	0.000000000000000E+000	0.000000000000000E+000	0.0598024	0.0598024	0.0000000E+000	0.000000000000000E+000	0.000346229
1	1	0	1	0	0	8	2205.83	1	0.643184	0.998644	0.0349579	0.262017	0	0.0727825	11	4.19833e-05	0.000000000000000E+000	799185	0.000000000000000E+000	0.000000000000000E+000	0.0727825	0.0727825	0.0000000E+000	0.000000000000000E+000	0.000642312
1	1	0	1	0	0	8	2262.83	1	0.643719	0.998581	0.0918919	0.318951	0	0.0885975	11	5.2159e-05	0.000000000000000E+000	971255	0.000000000000000E+000	0.000000000000000E+000	0.0885975	0.0885975	0.0000000E+000	0.000000000000000E+000	0.000642806
1	1	0	1	0	0	8	2319.83	1	0.644546	0.998708	0.148826	0.375885	0	0.104413	11	6.23455e-05	0.000000000000000E+000	1.14175e+06	0.000000000000000E+000	0.000000000000000E+000	0.104413	0.104413	0.0000000E+000	0.000000000000000E+000	0.000643713
1	1	0	0	0	0	9	2375.83	1.778	0.675241	1.7765	0.0444082	0.451258	0	0.125349	11	7.62231e-05	0.000000000000000E+000	1.2538e+06	0.000000000000000E+000	0.000000000000000E+000	0.125349	0.125349	0.0000000E+000	0.000000000000000E+000	0.00119956
1	1	0	0	0	0	9	2432.83	1.778	0.675839	1.77592	0.14566	0.55251	0	0.153475	11	9.52206e-05	0.000000000000000E+000	1.53258e+06	0.000000000000000E+000	0.000000000000000E+000	0.153475	0.153475	0.0000000E+000	0.000000000000000E+000	0.00120024
1	1	0	0	0	0	9	2489.83	1.778	0.67663	1.77599	0.246911	0.653761	0	0.1816	11	0.000114237	0.000000000000000E+000	1.80946e+06	0.000000000000000E+000	0.000000000000000E+000	0.1816	0.1816	0.0000000E+000	0.000000000000000E+000	0.00120168
1	1	0	1	0	0	10	2545.83	3.162	0.711932	3.15957	0.047404	0.773995	0	0.214999	11	0.000137312	0.000000000000000E+000	1.95156e+06	0.000000000000000E+000	0.000000000000000E+000	0.214999	0.214999	0.0000000E+000	0.000000000000000E+000	0.0022494
1	1	0	1	0	0	10	2602.83	3.162	0.71221	3.16021	0.227537	0.954128	0	0.265035	11	0.00017294	0.000000000000000E+000	2.40406e+06	0.000000000000000E+000	0.000000000000000E+000	0.265035	0.265035	0.0000000E+000	0.000000000000000E+000	0.00225073
1	1	0	1	0	0	10	2659.83	3.162	0.713258	3.16053	0.40767	1.13426	0	0.315072	11	0.000208602	0.000000000000000E+000	2.85041e+06	0.000000000000000E+000	0.000000000000000E+000	0.315072	0.315072	0.0000000E+000	0.000000000000000E+000	0.00225427
1	1	0	0	0	0	11	2715.83	5.623	0.75275	5.62115	0.0281021	1.32354	0	0.367649	11	0.000246427	0.000000000000000E+000	3.02577e+06	0.000000000000000E+000	0.000000000000000E+000	0.367649	0.367649	0.0000000E+000	0.000000000000000E+000	0.00423132
1	1	0	0	0	0	11	2772.83	5.623	0.75347	5.62083	0.34847	1.6439	0	0.45664	11	0.000313439	0.000000000000000E+000	3.752e+06	0.000000000000000E+000	0.000000000000000E+000	0.45664	0.45664	0.0000000E+000	0.000000000000000E+000	0.00423513
1	1	0	0	0	0	11	2829.83	5.623	0.754912	5.62115	0.668838	1.96427	0	0.545631	11	0.000380562	0.000000000000000E+000	4.46849e+06	0.000000000000000E+000	0.000000000000000E+000	0.545631	0.545631	0.0000000E+000	0.000000000000000E+000	0.00424347
1	1	0	0	0	0	11	2886.83	5.623	0.756398	5.62064	0.989207	2.28464	0	0.634623	11	0.000447808	0.000000000000000E+000	5.17978e+06	0.000000000000000E+000	0.000000000000000E+000	0.634623	0.634623	0.0000000E+000	0.000000000000000E+000	0.00425144
1	1	0	1	0	0	12	2942.84	10	0.803062	9.99747	0.5199	2.82703	0	0.785285	11	0.000568316	0.000000000000000E+000	5.79625e+06	0.000000000000000E+000	0.000000000000000E+000	0.785285	0.785285	0.0000000E+000	0.000000000000000E+000	0.00802859
1	1	0	1	0	0	12	2999.84	10	0.805619	9.99817	1.08979	3.39692	0	0.943588	11	0.000695666	0.000000000000000E+000	6.92839e+06	0.000000000000000E+000	0.000000000000000E+000	0.943588	0.943588	0.0000000E+000	0.000000000000000E+000	0.00805472
1	1	0	1	0	0	12	3056.84	10	0.808526	9.99811	1.65968	3.96681	0	1.10189	11	0.000823435	0.000000000000000E+000	8.04304e+06	0.000000000000000E+000	0.000000000000000E+000	1.10189	1.10189	0.0000000E+000	0.000000000000000E+000	0.00808374
1	1	0	1	0	0	12	3070.84	10	0.808099	9.99836	1.79966	4.10678	0	1.14077	11	0.000854879	0.000000000000000E+000	8.33408e+06	0.000000000000000E+000	0.000000000000000E+000	1.14077	1.14077	0.0000000E+000	0.000000000000000E+000	0.00807966