File: Data_1mg/2023_01_31_Co45Ni45Fe10Nx 1mg ref309_01_PEIS_C05.mpt
EC-Lab ASCII FILE
Nb header lines : 63

Potentio Electrochemical Impedance Spectroscopy

Run on channel : 5 (SN 30436)
User :
CE vs. WE compliance from -10 V to 10 V
Electrode connection : standard
Potential control : Ewe
Ewe ctrl range : min = -10.00 V, max = 10.00 V
Safety Limits :
	Do not start on E overload
Acquisition started on : 01/31/2023 13:05:58.350
Loaded Setting File :  C:\Users\grupogalan\Documents\EC-Lab\Data\Scott\_cyclic_pause_tafel_CA.mps
Saved on :
	File : 2023_01_31_Co45Ni45Fe10Nx 1mg ref309_01_PEIS_C05.mpr
	Directory : C:\Users\grupogalan\Documents\EC-Lab\Data\Scott\
	Host : 169.254.104.159
Device : VSP (SN 1176)
Address : USB
EC-Lab for windows v11.46 (software)
Internet server v11.40 (firmware)
Command interpretor v11.40 (firmware)
Electrode material :
Initial state :
Electrolyte :
Comments :
Electrode surface area : 0.001 cm²
Characteristic mass : 0.001 g
Equivalent Weight : 0.000 g/eq.
Density : 0.000 g/cm3
Volume (V) : 0.001 cm³
Cycle Definition : Charge/Discharge alternance
Mode                Single sine
E (V)               0.0000
vs.                 Eoc
tE (h:m:s)          0:00:0.0000
record              0
dI                  0.000
unit dI             mA
dt (s)              0.000
fi                  200.000
unit fi             kHz
ff                  100.000
unit ff             mHz
Nd                  6
Points              per decade
spacing             Logarithmic
Va (mV)             10.0
pw                  0.10
Na                  2
corr                0
E range min (V)     -10.000
E range max (V)     10.000
I Range             Auto
Bandwidth           5
nc cycles           0
goto Ns'            0
nr cycles           0
inc. cycle          0

freq/Hz	Re(Z)/Ohm	-Im(Z)/Ohm	|Z|/Ohm	Phase(Z)/deg	time/s	<Ewe>/V	<I>/mA	Cs/µF	Cp/µF	cycle number	I Range	|Ewe|/V	|I|/A	Ns	(Q-Qo)/mA.h	Re(Y)/Ohm-1	Im(Y)/Ohm-1	|Y|/Ohm-1	Phase(Y)/deg	Re(C)/nF	Im(C)/nF	|C|/nF	Phase(C)/deg	Re(M)	Im(M)	|M|	Phase(M)/deg	Re(Permittivity)	Im(Permittivity)	|Permittivity|	Phase(Permittivity)/deg	Re(Resistivity)/Ohm.cm	Im(Resistivity)/Ohm.cm	|Resistivity|/Ohm.cm	Phase(Resistivity)/deg	Re(Conductivity)/mS/cm	Im(Conductivity)/mS/cm	|Conductivity|/mS/cm	Phase(Conductivity)/deg	Tan(Delta)	Loss Angle(Delta)/deg	dq/mA.h
199998	2.11422	-1.99561	2.9073	43.3469	2.12048	-0.15687	-0.177708	-0.398767	-0.187884	1	9	0.0101329	0.00348534	0	-2.38921e-05	0.250133	-0.2361	0.343962	-43.3469	-187.884	199.051	273.719	-133.347	0.0000000E+000	0.0000000E+000	0.0000000E+000	133.347	0.0000000E+000	0.0000000E+000	0.0000000E+000	-133.347	0.0000000E+000	0.0000000E+000	0.0000000E+000	43.3469	0.0000000E+000	0.0000000E+000	0.0000000E+000	-43.3469	-1.05944	-43.3469	-2.38921e-05
91291.2	0.898286	-0.249623	0.932325	15.53	3.10149	-0.156813	-0.177	-6.98404	-0.500658	1	9	0.00946215	0.010149	0	-5.16703e-05	1.03343	-0.287177	1.07259	-15.53	-500.658	1801.65	1869.92	-105.53	0.0000000E+000	0.0000000E+000	0.0000000E+000	105.53	0.0000000E+000	0.0000000E+000	0.0000000E+000	-105.53	0.0000000E+000	0.0000000E+000	0.0000000E+000	15.53	0.0000000E+000	0.0000000E+000	0.0000000E+000	-15.53	-3.59857	-15.53	2.01512e-06
41669.8	0.895452	0.0531106	0.897025	-3.39432	4.0825	-0.156887	-0.170515	71.9147	0.252099	1	9	0.00995476	0.0110975	0	-0.000130367	1.11284	0.0660043	1.1148	3.39432	252.099	4250.42	4257.89	-86.6057	0.0000000E+000	0.0000000E+000	0.0000000E+000	86.6057	0.0000000E+000	0.0000000E+000	0.0000000E+000	-86.6057	0.0000000E+000	0.0000000E+000	0.0000000E+000	-3.39432	0.0000000E+000	0.0000000E+000	0.0000000E+000	3.39432	16.8601	3.39432	-3.14236e-06
19020.9	0.922847	0.249427	0.95596	-15.1245	5.0635	-0.156793	-0.166881	33.5463	2.28377	1	9	0.0101329	0.0105997	0	-0.000140473	1.00983	0.272938	1.04607	15.1245	2283.77	8449.64	8752.83	-74.8755	0.0000000E+000	0.0000000E+000	0.0000000E+000	74.8755	0.0000000E+000	0.0000000E+000	0.0000000E+000	-74.8755	0.0000000E+000	0.0000000E+000	0.0000000E+000	-15.1245	0.0000000E+000	0.0000000E+000	0.0000000E+000	15.1245	3.69986	15.1245	1.47699e-05
8683.37	0.966891	0.526663	1.10102	-28.577	5.93499	-0.156712	-0.183	34.8016	7.96291	1	9	0.0101156	0.00918748	0	-0.000204488	0.797599	0.43445	0.908246	28.577	7962.91	14618.9	16647	-61.423	0.0000000E+000	0.0000000E+000	0.0000000E+000	61.423	0.0000000E+000	0.0000000E+000	0.0000000E+000	-61.423	0.0000000E+000	0.0000000E+000	0.0000000E+000	-28.577	0.0000000E+000	0.0000000E+000	0.0000000E+000	28.577	1.83588	28.577	-2.47018e-05
3961.2	1.11994	1.08685	1.56061	-44.1409	6.81493	-0.156845	-0.176981	36.9679	17.9298	1	9	0.00946984	0.00606805	0	-0.000249991	0.45984	0.446253	0.640776	44.1409	17929.8	18475.7	25745.4	-45.8591	0.0000000E+000	0.0000000E+000	0.0000000E+000	45.8591	0.0000000E+000	0.0000000E+000	0.0000000E+000	-45.8591	0.0000000E+000	0.0000000E+000	0.0000000E+000	-44.1409	0.0000000E+000	0.0000000E+000	0.0000000E+000	44.1409	1.03045	44.1409	-2.59087e-05
1808.26	1.19082	2.1738	2.4786	-61.2858	7.95995	-0.156912	-0.172024	40.4891	31.1433	1	9	0.00946546	0.00381887	0	-0.000305664	0.193835	0.353839	0.403453	61.2858	31143.3	17060.5	35510.1	-28.7142	0.0000000E+000	0.0000000E+000	0.0000000E+000	28.7142	0.0000000E+000	0.0000000E+000	0.0000000E+000	-28.7142	0.0000000E+000	0.0000000E+000	0.0000000E+000	-61.2858	0.0000000E+000	0.0000000E+000	0.0000000E+000	61.2858	0.547806	61.2858	-1.91699e-05
825.264	1.35478	4.58163	4.77774	-73.5271	9.13369	-0.156798	-0.0233483	42.0927	38.7082	1	10	0.00960155	0.00200964	0	-0.000324599	0.0593505	0.200713	0.209304	73.5271	38708.2	11446	40365	-16.4729	0.0000000E+000	0.0000000E+000	0.0000000E+000	16.4729	0.0000000E+000	0.0000000E+000	0.0000000E+000	-16.4729	0.0000000E+000	0.0000000E+000	0.0000000E+000	-73.5271	0.0000000E+000	0.0000000E+000	0.0000000E+000	73.5271	0.295698	73.5271	-4.10616e-06
377.051	1.78221	9.84887	10.0088	-79.743	10.0567	-0.156768	-0.0231228	42.8581	41.4992	1	10	0.00955739	0.000954896	0	-0.000330341	0.0177907	0.0983151	0.0999118	79.743	41499.2	7509.54	42173.2	-10.257	0.0000000E+000	0.0000000E+000	0.0000000E+000	10.257	0.0000000E+000	0.0000000E+000	0.0000000E+000	-10.257	0.0000000E+000	0.0000000E+000	0.0000000E+000	-79.743	0.0000000E+000	0.0000000E+000	0.0000000E+000	79.743	0.180956	79.743	-3.35346e-06
172.037	3.0798	20.1698	20.4036	-81.3184	10.9754	-0.156827	-0.0233297	45.8666	44.8216	1	10	0.00929943	0.000455774	0	-0.000336168	0.00739791	0.0484494	0.049011	81.3184	44821.6	6843.96	45341.1	-8.68163	0.0000000E+000	0.0000000E+000	0.0000000E+000	8.68163	0.0000000E+000	0.0000000E+000	0.0000000E+000	-8.68163	0.0000000E+000	0.0000000E+000	0.0000000E+000	-81.3184	0.0000000E+000	0.0000000E+000	0.0000000E+000	81.3184	0.152693	81.3184	-2.49829e-06
78.5176	4.33432	42.3201	42.5415	-84.1523	12.3706	-0.157223	-0.00290153	47.8967	47.3995	1	11	0.0100855	0.000237073	0	-0.000339667	0.00239494	0.0233841	0.0235064	84.1523	47399.5	4854.54	47647.5	-5.84769	0.0000000E+000	0.0000000E+000	0.0000000E+000	5.84769	0.0000000E+000	0.0000000E+000	0.0000000E+000	-5.84769	0.0000000E+000	0.0000000E+000	0.0000000E+000	-84.1523	0.0000000E+000	0.0000000E+000	0.0000000E+000	84.1523	0.102417	84.1523	-4.85113e-07
35.8372	8.5233	89.4976	89.9026	-84.5598	13.2991	-0.156848	-0.00309689	49.6221	49.1761	1	11	0.0101636	0.000113051	0	-0.000340189	0.00105454	0.011073	0.0111232	84.5598	49176.1	4683.28	49398.6	-5.44015	0.0000000E+000	0.0000000E+000	0.0000000E+000	5.44015	0.0000000E+000	0.0000000E+000	0.0000000E+000	-5.44015	0.0000000E+000	0.0000000E+000	0.0000000E+000	-84.5598	0.0000000E+000	0.0000000E+000	0.0000000E+000	84.5598	0.095235	84.5598	-2.80216e-07
16.367	17.4953	185.207	186.031	-84.6036	14.436	-0.156669	-0.00041635	52.5043	52.0399	1	12	0.0100366	5.39511e-05	0	-0.00034102	0.000505533	0.00535162	0.00537544	84.6036	52039.9	4915.88	52271.6	-5.39635	0.0000000E+000	0.0000000E+000	0.0000000E+000	5.39635	0.0000000E+000	0.0000000E+000	0.0000000E+000	-5.39635	0.0000000E+000	0.0000000E+000	0.0000000E+000	-84.6036	0.0000000E+000	0.0000000E+000	0.0000000E+000	84.6036	0.0944636	84.6036	-2.98573e-07
7.46893	36.1456	392.708	394.368	-84.7412	15.1866	-0.156814	-0.000370239	54.2615	53.8056	1	12	0.0100792	2.55579e-05	0	-0.000341006	0.000232408	0.00252503	0.0025357	84.7412	53805.6	4952.37	54033.1	-5.25879	0.0000000E+000	0.0000000E+000	0.0000000E+000	5.25879	0.0000000E+000	0.0000000E+000	0.0000000E+000	-5.25879	0.0000000E+000	0.0000000E+000	0.0000000E+000	-84.7412	0.0000000E+000	0.0000000E+000	0.0000000E+000	84.7412	0.0920417	84.7412	-1.59966e-07
3.4086	75.719	810.663	814.192	-84.6638	16.6482	-0.156829	7.34292e-05	57.5976	57.0994	1	13	0.00996998	1.22453e-05	0	-0.000341021	0.000114222	0.00122289	0.00122821	84.6638	57099.4	5333.3	57348	-5.33616	0.0000000E+000	0.0000000E+000	0.0000000E+000	5.33616	0.0000000E+000	0.0000000E+000	0.0000000E+000	-5.33616	0.0000000E+000	0.0000000E+000	0.0000000E+000	-84.6638	0.0000000E+000	0.0000000E+000	0.0000000E+000	84.6638	0.0934037	84.6638	-1.94603e-07
1.55627	196.944	1711.52	1722.82	-83.4359	18.9815	-0.156799	-5.34829e-05	59.7518	58.9709	1	13	0.010128	5.87872e-06	0	-0.000340964	6.63536e-05	0.000576639	0.000580444	83.4359	58970.9	6785.76	59360.1	-6.56413	0.0000000E+000	0.0000000E+000	0.0000000E+000	6.56413	0.0000000E+000	0.0000000E+000	0.0000000E+000	-6.56413	0.0000000E+000	0.0000000E+000	0.0000000E+000	-83.4359	0.0000000E+000	0.0000000E+000	0.0000000E+000	83.4359	0.115069	83.4359	1.12366e-07
0.710357	606.248	3544.38	3595.86	-80.2938	25.0012	-0.15679	6.63223e-05	63.2125	61.4157	1	14	0.0101075	2.81087e-06	0	-0.000340756	4.68862e-05	0.000274117	0.000278098	80.2938	61415.7	10504.8	62307.6	-9.70621	0.0000000E+000	0.0000000E+000	0.0000000E+000	9.70621	0.0000000E+000	0.0000000E+000	0.0000000E+000	-9.70621	0.0000000E+000	0.0000000E+000	0.0000000E+000	-80.2938	0.0000000E+000	0.0000000E+000	0.0000000E+000	80.2938	0.171045	80.2938	3.64626e-08
0.324439	1439.73	7228.72	7370.7	-78.7359	35.915	-0.156791	3.42668e-05	67.8618	65.2726	1	14	0.0100759	1.36703e-06	0	-0.000340841	2.65011e-05	0.000133059	0.000135672	78.7359	65272.6	13000.2	66554.6	-11.2641	0.0000000E+000	0.0000000E+000	0.0000000E+000	11.2641	0.0000000E+000	0.0000000E+000	0.0000000E+000	-11.2641	0.0000000E+000	0.0000000E+000	0.0000000E+000	-78.7359	0.0000000E+000	0.0000000E+000	0.0000000E+000	78.7359	0.199168	78.7359	-5.02664e-08
0.147897	4416.09	14485.4	15143.6	-73.0454	59.7866	-0.156808	7.10769e-05	74.2899	67.9724	1	14	0.0101179	6.68126e-07	0	-0.000340643	1.92565e-05	6.31642e-05	6.60343e-05	73.0454	67972.4	20722.3	71061	-16.9546	0.0000000E+000	0.0000000E+000	0.0000000E+000	16.9546	0.0000000E+000	0.0000000E+000	0.0000000E+000	-16.9546	0.0000000E+000	0.0000000E+000	0.0000000E+000	-73.0454	0.0000000E+000	0.0000000E+000	0.0000000E+000	73.0454	0.304864	73.0454	1.9395e-07
0.0999041	7768.97	19828.9	21296.5	-68.6047	80.8506	-0.156796	0.000107216	80.3412	69.6494	1	14	0.0101013	4.74318e-07	0	-0.000340079	1.71295e-05	4.37201e-05	4.6956e-05	68.6047	69649.4	27288.7	74804.5	-21.3953	0.0000000E+000	0.0000000E+000	0.0000000E+000	21.3953	0.0000000E+000	0.0000000E+000	0.0000000E+000	-21.3953	0.0000000E+000	0.0000000E+000	0.0000000E+000	-68.6047	0.0000000E+000	0.0000000E+000	0.0000000E+000	68.6047	0.391801	68.6047	5.64111e-07