File: Data_1mg/2023_01_31_Co25Ni25Fe50 elect1 ref307_C05.mpt
EC-Lab ASCII FILE
Nb header lines : 63

Potentio Electrochemical Impedance Spectroscopy

Run on channel : 5 (SN 30436)
User :
CE vs. WE compliance from -10 V to 10 V
Electrode connection : standard
Potential control : Ewe
Ewe ctrl range : min = -10.00 V, max = 10.00 V
Safety Limits :
	Do not start on E overload
Acquisition started on : 01/31/2023 15:11:30.813
Loaded Setting File :  NONE
Saved on :
	File : 2023_01_31_Co25Ni25Fe50 elect1 ref307_C05.mpr
	Directory : C:\Users\grupogalan\Documents\EC-Lab\Data\Scott\
	Host : 169.254.104.159
Device : VSP (SN 1176)
Address : USB
EC-Lab for windows v11.46 (software)
Internet server v11.40 (firmware)
Command interpretor v11.40 (firmware)
Electrode material :
Initial state :
Electrolyte :
Comments :
Electrode surface area : 0.001 cm²
Characteristic mass : 0.001 g
Equivalent Weight : 0.000 g/eq.
Density : 0.000 g/cm3
Volume (V) : 0.001 cm³
Cycle Definition : Charge/Discharge alternance
Mode                Single sine
E (V)               0.0000
vs.                 Eoc
tE (h:m:s)          0:00:0.0000
record              0
dI                  0.000
unit dI             mA
dt (s)              0.000
fi                  200.000
unit fi             kHz
ff                  100.000
unit ff             mHz
Nd                  6
Points              per decade
spacing             Logarithmic
Va (mV)             10.0
pw                  0.10
Na                  2
corr                0
E range min (V)     -10.000
E range max (V)     10.000
I Range             Auto
Bandwidth           5
nc cycles           0
goto Ns'            0
nr cycles           0
inc. cycle          0

freq/Hz	Re(Z)/Ohm	-Im(Z)/Ohm	|Z|/Ohm	Phase(Z)/deg	time/s	<Ewe>/V	<I>/mA	Cs/µF	Cp/µF	cycle number	I Range	|Ewe|/V	|I|/A	Ns	(Q-Qo)/mA.h	Re(Y)/Ohm-1	Im(Y)/Ohm-1	|Y|/Ohm-1	Phase(Y)/deg	Re(C)/nF	Im(C)/nF	|C|/nF	Phase(C)/deg	Re(M)	Im(M)	|M|	Phase(M)/deg	Re(Permittivity)	Im(Permittivity)	|Permittivity|	Phase(Permittivity)/deg	Re(Resistivity)/Ohm.cm	Im(Resistivity)/Ohm.cm	|Resistivity|/Ohm.cm	Phase(Resistivity)/deg	Re(Conductivity)/mS/cm	Im(Conductivity)/mS/cm	|Conductivity|/mS/cm	Phase(Conductivity)/deg	Tan(Delta)	Loss Angle(Delta)/deg	dq/mA.h
199998	1.58143	-1.58529	2.23921	45.0698	2.56548	-0.177723	-0.180037	-0.501979	-0.251602	1	9	0.00767864	0.00342918	0	-3.47452e-05	0.315399	-0.316169	0.446586	-45.0698	-251.602	250.989	355.385	-135.07	0.0000000E+000	0.0000000E+000	0.0000000E+000	135.07	0.0000000E+000	0.0000000E+000	0.0000000E+000	-135.07	0.0000000E+000	0.0000000E+000	0.0000000E+000	45.0698	0.0000000E+000	0.0000000E+000	0.0000000E+000	-45.0698	-0.997565	-45.0698	-3.47452e-05
91291.2	1.07198	-0.312312	1.11655	16.243	3.40948	-0.177846	-0.175714	-5.58216	-0.436739	1	9	0.00911195	0.00816079	0	-4.61763e-05	0.859864	-0.250513	0.895613	-16.243	-436.739	1499.07	1561.39	-106.243	0.0000000E+000	0.0000000E+000	0.0000000E+000	106.243	0.0000000E+000	0.0000000E+000	0.0000000E+000	-106.243	0.0000000E+000	0.0000000E+000	0.0000000E+000	16.243	0.0000000E+000	0.0000000E+000	0.0000000E+000	-16.243	-3.43241	-16.243	1.09762e-05
41669.8	1.04286	0.0202908	1.04306	-1.11465	4.2535	-0.177725	-0.170179	188.235	0.0712327	1	9	0.0103653	0.00993744	0	-8.99825e-05	0.958536	0.0186501	0.958718	1.11465	71.2328	3661.07	3661.76	-88.8853	0.0000000E+000	0.0000000E+000	0.0000000E+000	88.8853	0.0000000E+000	0.0000000E+000	0.0000000E+000	-88.8853	0.0000000E+000	0.0000000E+000	0.0000000E+000	-1.11465	0.0000000E+000	0.0000000E+000	0.0000000E+000	1.11465	51.3959	1.11465	-2.70608e-05
19020.9	1.11598	0.280996	1.15081	-14.1329	5.09749	-0.17785	-0.164216	29.7775	1.77534	1	9	0.0110143	0.00957092	0	-0.000112117	0.842652	0.212175	0.868954	14.1329	1775.34	7050.77	7270.85	-75.8671	0.0000000E+000	0.0000000E+000	0.0000000E+000	75.8671	0.0000000E+000	0.0000000E+000	0.0000000E+000	-75.8671	0.0000000E+000	0.0000000E+000	0.0000000E+000	-14.1329	0.0000000E+000	0.0000000E+000	0.0000000E+000	14.1329	3.9715	14.1329	-4.83821e-06
8683.37	1.16997	0.652835	1.33979	-29.1611	5.96898	-0.177978	-0.179851	28.0756	6.66597	1	9	0.0101581	0.0075819	0	-0.00014594	0.651785	0.36369	0.746387	29.1611	6665.97	11946.4	13680.3	-60.8389	0.0000000E+000	0.0000000E+000	0.0000000E+000	60.8389	0.0000000E+000	0.0000000E+000	0.0000000E+000	-60.8389	0.0000000E+000	0.0000000E+000	0.0000000E+000	-29.1611	0.0000000E+000	0.0000000E+000	0.0000000E+000	29.1611	1.79214	29.1611	-2.6037e-05
3961.2	1.25216	1.3304	1.82698	-46.7353	6.84892	-0.17797	-0.173031	30.2003	16.0143	1	9	0.00967881	0.0052977	0	-0.000187994	0.375138	0.398578	0.547351	46.7353	16014.3	15072.5	21991.7	-43.2647	0.0000000E+000	0.0000000E+000	0.0000000E+000	43.2647	0.0000000E+000	0.0000000E+000	0.0000000E+000	-43.2647	0.0000000E+000	0.0000000E+000	0.0000000E+000	-46.7353	0.0000000E+000	0.0000000E+000	0.0000000E+000	46.7353	0.941189	46.7353	-1.70398e-05
1808.26	1.45678	2.77712	3.13601	-62.32	7.99396	-0.177953	-0.172639	31.6931	24.854	1	9	0.0102618	0.00327225	0	-0.000241432	0.148128	0.282383	0.318876	62.32	24854	13037.6	28066	-27.68	0.0000000E+000	0.0000000E+000	0.0000000E+000	27.68	0.0000000E+000	0.0000000E+000	0.0000000E+000	-27.68	0.0000000E+000	0.0000000E+000	0.0000000E+000	-62.32	0.0000000E+000	0.0000000E+000	0.0000000E+000	62.32	0.524566	62.32	-3.43638e-05
825.264	1.66795	5.87064	6.10299	-74.1392	9.16769	-0.177903	-0.0228506	32.8505	30.3968	1	10	0.0102083	0.00167267	0	-0.000257456	0.0447815	0.157616	0.163854	74.1392	30396.8	8636.26	31599.8	-15.8608	0.0000000E+000	0.0000000E+000	0.0000000E+000	15.8608	0.0000000E+000	0.0000000E+000	0.0000000E+000	-15.8608	0.0000000E+000	0.0000000E+000	0.0000000E+000	-74.1392	0.0000000E+000	0.0000000E+000	0.0000000E+000	74.1392	0.284118	74.1392	-1.92275e-06
377.051	2.22338	12.2261	12.4266	-79.6931	10.0907	-0.177878	-0.0232495	34.5248	33.4196	1	10	0.00987355	0.000794547	0	-0.00026345	0.0143981	0.0791737	0.0804723	79.6931	33419.6	6077.51	33967.7	-10.3069	0.0000000E+000	0.0000000E+000	0.0000000E+000	10.3069	0.0000000E+000	0.0000000E+000	0.0000000E+000	-10.3069	0.0000000E+000	0.0000000E+000	0.0000000E+000	-79.6931	0.0000000E+000	0.0000000E+000	0.0000000E+000	79.6931	0.181855	79.6931	-2.46795e-06
172.037	3.17218	25.2725	25.4708	-82.8457	11.2594	-0.177805	-0.0030706	36.6058	36.038	1	11	0.00975146	0.000382848	0	-0.00026739	0.00488958	0.0389549	0.0392606	82.8457	36038	4523.45	36320.8	-7.15429	0.0000000E+000	0.0000000E+000	0.0000000E+000	7.15429	0.0000000E+000	0.0000000E+000	0.0000000E+000	-7.15429	0.0000000E+000	0.0000000E+000	0.0000000E+000	-82.8457	0.0000000E+000	0.0000000E+000	0.0000000E+000	82.8457	0.125519	82.8457	-1.78592e-06
78.5176	4.55397	53.943	54.1349	-85.1744	12.1865	-0.177906	-0.00283703	37.5767	37.3107	1	11	0.00979881	0.000181007	0	-0.000268079	0.00155395	0.0184069	0.0184724	85.1744	37310.7	3149.84	37443.5	-4.82558	0.0000000E+000	0.0000000E+000	0.0000000E+000	4.82558	0.0000000E+000	0.0000000E+000	0.0000000E+000	-4.82558	0.0000000E+000	0.0000000E+000	0.0000000E+000	-85.1744	0.0000000E+000	0.0000000E+000	0.0000000E+000	85.1744	0.0844219	85.1744	-4.29602e-07
35.8372	10.7281	111.651	112.165	-84.5115	13.1151	-0.177576	-0.00300201	39.7764	39.4125	1	11	0.00969545	8.64393e-05	0	-0.000268606	0.000852724	0.00887458	0.00891545	84.5115	39412.5	3787	39594	-5.48848	0.0000000E+000	0.0000000E+000	0.0000000E+000	5.48848	0.0000000E+000	0.0000000E+000	0.0000000E+000	-5.48848	0.0000000E+000	0.0000000E+000	0.0000000E+000	-84.5115	0.0000000E+000	0.0000000E+000	0.0000000E+000	84.5115	0.0960861	84.5115	-3.13053e-07