File: Data_1mg/2023_01_31 NiNx 1 mg 307ref set2_03_CP_C01.mpt
EC-Lab ASCII FILE
Nb header lines : 53

Chronopotentiometry

Run on channel : 1 (SN 21648)
User :
CE vs. WE compliance from -10 V to 10 V
Electrode connection : standard
Potential control : Ewe
Ewe ctrl range : min = -2.50 V, max = 2.50 V
Safety Limits :
	Do not start on E overload
Acquisition started on : 01/31/2023 10:44:48.640
Loaded Setting File :  C:\Users\grupogalan\Documents\EC-Lab\Data\Scott\_cyclic_pause_tafel.mps
Saved on :
	File : 2023_01_31 NiNx 1 mg 307ref set2_03_CP_C01.mpr
	Directory : C:\Users\grupogalan\Documents\EC-Lab\Data\Scott\
	Host : 169.254.104.159
Device : VSP (SN 1176)
Address : USB
EC-Lab for windows v11.46 (software)
Internet server v11.40 (firmware)
Command interpretor v11.40 (firmware)
Electrode material :
Initial state :
Electrolyte :
Comments :
Electrode surface area : 0.001 cm²
Characteristic mass : 0.001 g
Equivalent Weight : 0.000 g/eq.
Density : 0.000 g/cm3
Volume (V) : 0.001 cm³
Cycle Definition : Charge/Discharge alternance
Ns                  0                   1                   2                   3                   4                   5                   6                   7                   8                   9                   10                  11                  12
Is                  10.000              18.000              32.000              56.000              100.000             178.000             316.000             562.000             1.000               1.778               3.162               5.623               10.000
unit Is             µA                  µA                  µA                  µA                  µA                  µA                  µA                  µA                  mA                  mA                  mA                  mA                  mA
vs.                 <None>              <None>              <None>              <None>              <None>              <None>              <None>              <None>              <None>              <None>              <None>              <None>              <None>
ts (h:m:s)          0:03:0.0000         0:03:0.0000         0:03:0.0000         0:03:0.0000         0:03:0.0000         0:03:0.0000         0:03:0.0000         0:03:0.0000         0:03:0.0000         0:03:0.0000         0:03:0.0000         0:03:0.0000         0:03:0.0000
EM (V)              pass                pass                pass                pass                pass                pass                pass                pass                pass                pass                pass                pass                pass
dQM                 500.000             900.000             1.600               2.800               5.000               8.900               15.800              28.100              50.000              88.900              158.100             281.150             500.000
unit dQM            nA.h                nA.h                µA.h                µA.h                µA.h                µA.h                µA.h                µA.h                µA.h                µA.h                µA.h                µA.h                µA.h
record              <Ewe>               <Ewe>               <Ewe>               <Ewe>               <Ewe>               <Ewe>               <Ewe>               <Ewe>               <Ewe>               <Ewe>               <Ewe>               <Ewe>               <Ewe>
dEs (mV)            0.00                0.00                0.00                0.00                0.00                0.00                0.00                0.00                0.00                0.00                0.00                0.00                0.00
dts (s)             1.0000              1.0000              1.0000              1.0000              1.0000              1.0000              1.0000              1.0000              1.0000              1.0000              1.0000              1.0000              1.0000
E range min (V)     -2.500              -2.500              -2.500              -2.500              -2.500              -2.500              -2.500              -2.500              -2.500              -2.500              -2.500              -2.500              -2.500
E range max (V)     2.500               2.500               2.500               2.500               2.500               2.500               2.500               2.500               2.500               2.500               2.500               2.500               2.500
I Range             10 mA               10 mA               10 mA               10 mA               10 mA               10 mA               10 mA               10 mA               10 mA               10 mA               10 mA               10 mA               10 mA
Bandwidth           5                   5                   5                   5                   5                   5                   5                   5                   5                   5                   5                   5                   5
goto Ns'            0                   0                   0                   0                   0                   0                   0                   0                   0                   0                   0                   0                   0
nc cycles           0                   0                   0                   0                   0                   0                   0                   0                   0                   0                   0                   0                   0

mode	ox/red	error	control changes	Ns changes	counter inc.	Ns	time/s	control/mA	<Ewe>/V	I/mA	dQ/C	(Q-Qo)/C	half cycle	Q charge/discharge/mA.h	I Range	Energy charge/W.h	Energy discharge/W.h	Capacitance charge/µF	Capacitance discharge/µF	Q discharge/mA.h	Q charge/mA.h	Capacity/mA.h	Efficiency/%	cycle number	P/W
1	1	0	0	0	0	0	655.439	0.01	-0.115373	0.0104419	9.58022e-06	9.58022e-06	0	2.66117e-06	11	3.07027e-10	0.000000000000000E+000	0.000000000000000E+000	0.000000000000000E+000	0.000000000000000E+000	2.66117e-06	2.66117e-06	0.0000000E+000	0.000000000000000E+000	-1.20471e-06
1	1	0	0	0	0	0	711.439	0.01	0.64632	0.0101247	0.000570482	0.000570482	0	0.000158467	11	9.61106e-08	0.000000000000000E+000	748.965	0.000000000000000E+000	0.000000000000000E+000	0.000158467	0.000158467	0.0000000E+000	0.000000000000000E+000	6.54378e-06
1	1	0	0	0	0	0	767.439	0.01	0.635561	0.0108226	0.0011298	0.0011298	0	0.000313835	11	1.95825e-07	0.000000000000000E+000	1504.53	0.000000000000000E+000	0.000000000000000E+000	0.000313835	0.000313835	0.0000000E+000	0.000000000000000E+000	6.87841e-06
1	1	0	0	0	0	0	823.439	0.01	0.61314	0.0105054	0.00169051	0.00169051	0	0.000469586	11	2.93218e-07	0.000000000000000E+000	2320.5	0.000000000000000E+000	0.000000000000000E+000	0.000469586	0.000469586	0.0000000E+000	0.000000000000000E+000	6.44125e-06
1	1	0	1	0	0	1	878.491	0.018	0.654782	0.0170404	0.000792405	0.00259361	0	0.000720448	11	4.56882e-07	0.000000000000000E+000	3367.65	0.000000000000000E+000	0.000000000000000E+000	0.000720448	0.000720448	0.0000000E+000	0.000000000000000E+000	1.11578e-05
1	1	0	1	0	0	1	934.491	0.018	0.639876	0.0180555	0.00180129	0.00360249	0	0.00100069	11	6.38356e-07	0.000000000000000E+000	4769.94	0.000000000000000E+000	0.000000000000000E+000	0.00100069	0.00100069	0.0000000E+000	0.000000000000000E+000	1.15533e-05
1	1	0	1	0	0	1	990.491	0.018	0.61978	0.0183728	0.00280983	0.00461104	0	0.00128084	11	8.14844e-07	0.000000000000000E+000	6272.22	0.000000000000000E+000	0.000000000000000E+000	0.00128084	0.00128084	0.0000000E+000	0.000000000000000E+000	1.13871e-05
1	1	0	0	0	0	2	1045.49	0.032	0.674169	0.0328387	0.00100139	0.00604504	0	0.00167918	11	1.07563e-06	0.000000000000000E+000	7656.39	0.000000000000000E+000	0.000000000000000E+000	0.00167918	0.00167918	0.0000000E+000	0.000000000000000E+000	2.21388e-05
1	1	0	0	0	0	2	1101.49	0.032	0.67303	0.0321408	0.00280992	0.00785356	0	0.00218155	11	1.41437e-06	0.000000000000000E+000	9961.36	0.000000000000000E+000	0.000000000000000E+000	0.00218155	0.00218155	0.0000000E+000	0.000000000000000E+000	2.16317e-05
1	1	0	0	0	0	2	1157.49	0.032	0.66729	0.0323311	0.00461909	0.00966273	0	0.00268409	11	1.75122e-06	0.000000000000000E+000	12346	0.000000000000000E+000	0.000000000000000E+000	0.00268409	0.00268409	0.0000000E+000	0.000000000000000E+000	2.15742e-05
1	1	0	1	0	0	3	1212.49	0.056	0.71342	0.0551721	0.00100623	0.0118644	0	0.00329565	11	2.17094e-06	0.000000000000000E+000	14315.2	0.000000000000000E+000	0.000000000000000E+000	0.00329565	0.00329565	0.0000000E+000	0.000000000000000E+000	3.93608e-05
1	1	0	1	0	0	3	1268.49	0.056	0.719253	0.0563141	0.00413664	0.0149948	0	0.00416521	11	2.79465e-06	0.000000000000000E+000	17965.9	0.000000000000000E+000	0.000000000000000E+000	0.00416521	0.00416521	0.0000000E+000	0.000000000000000E+000	4.05041e-05
1	1	0	1	0	0	3	1324.49	0.056	0.719842	0.0551721	0.0072684	0.0181265	0	0.00503514	11	3.42079e-06	0.000000000000000E+000	21702.8	0.000000000000000E+000	0.000000000000000E+000	0.00503514	0.00503514	0.0000000E+000	0.000000000000000E+000	3.97152e-05
1	1	0	0	0	0	4	1379.49	0.1	0.766267	0.10041	0.00050048	0.0214239	0	0.00595109	11	4.08648e-06	0.000000000000000E+000	24300.1	0.000000000000000E+000	0.000000000000000E+000	0.00595109	0.00595109	0.0000000E+000	0.000000000000000E+000	7.69407e-05
1	1	0	0	0	0	4	1435.49	0.1	0.775271	0.0998388	0.00610428	0.0270277	0	0.0075077	11	5.28755e-06	0.000000000000000E+000	30346.3	0.000000000000000E+000	0.000000000000000E+000	0.0075077	0.0075077	0.0000000E+000	0.000000000000000E+000	7.74021e-05
1	1	0	0	0	0	4	1491.49	0.1	0.778876	0.0998388	0.0117068	0.0326303	0	0.00906397	11	6.49722e-06	0.000000000000000E+000	36489	0.000000000000000E+000	0.000000000000000E+000	0.00906397	0.00906397	0.0000000E+000	0.000000000000000E+000	7.77621e-05
1	1	0	0	0	0	4	1547.49	0.1	0.781221	0.0996484	0.0173099	0.0382334	0	0.0106204	11	7.71137e-06	0.000000000000000E+000	42642.9	0.000000000000000E+000	0.000000000000000E+000	0.0106204	0.0106204	0.0000000E+000	0.000000000000000E+000	7.78474e-05
1	1	0	1	0	0	5	1602.49	0.178	0.832761	0.179021	0.00856673	0.0475004	0	0.0131946	11	9.83691e-06	0.000000000000000E+000	50098.9	0.000000000000000E+000	0.000000000000000E+000	0.0131946	0.0131946	0.0000000E+000	0.000000000000000E+000	0.000149081
1	1	0	1	0	0	5	1658.49	0.178	0.837668	0.17845	0.0185601	0.0574938	0	0.0159705	11	1.21561e-05	0.000000000000000E+000	60326.7	0.000000000000000E+000	0.000000000000000E+000	0.0159705	0.0159705	0.0000000E+000	0.000000000000000E+000	0.000149482
1	1	0	1	0	0	5	1714.49	0.178	0.841348	0.178767	0.0285537	0.0674874	0	0.0187465	11	1.44868e-05	0.000000000000000E+000	70540.3	0.000000000000000E+000	0.000000000000000E+000	0.0187465	0.0187465	0.0000000E+000	0.000000000000000E+000	0.000150405
1	1	0	0	0	0	6	1769.49	0.316	0.8943	0.317081	0.0110779	0.0821346	0	0.0228152	11	1.80596e-05	0.000000000000000E+000	81347.8	0.000000000000000E+000	0.000000000000000E+000	0.0228152	0.0228152	0.0000000E+000	0.000000000000000E+000	0.000283566
1	1	0	0	0	0	6	1825.49	0.316	0.905403	0.315939	0.0288021	0.0998588	0	0.0277385	11	2.24914e-05	0.000000000000000E+000	97826.4	0.000000000000000E+000	0.000000000000000E+000	0.0277385	0.0277385	0.0000000E+000	0.000000000000000E+000	0.000286052
1	1	0	0	0	0	6	1881.49	0.316	0.913986	0.31613	0.0465261	0.117583	0	0.0326619	11	2.6971e-05	0.000000000000000E+000	114229	0.000000000000000E+000	0.000000000000000E+000	0.0326619	0.0326619	0.0000000E+000	0.000000000000000E+000	0.000288938
1	1	0	1	0	0	7	1936.49	0.562	0.987729	0.562685	0.012374	0.140402	0	0.0390005	11	3.30017e-05	0.000000000000000E+000	127279	0.000000000000000E+000	0.000000000000000E+000	0.0390005	0.0390005	0.0000000E+000	0.000000000000000E+000	0.00055578
1	1	0	1	0	0	7	1992.49	0.562	1.00858	0.562939	0.0438717	0.1719	0	0.0477499	11	4.17472e-05	0.000000000000000E+000	152942	0.000000000000000E+000	0.000000000000000E+000	0.0477499	0.0477499	0.0000000E+000	0.000000000000000E+000	0.000567768
1	1	0	1	0	0	7	2048.49	0.562	1.02147	0.562304	0.0753682	0.203396	0	0.0564989	11	5.06319e-05	0.000000000000000E+000	178913	0.000000000000000E+000	0.000000000000000E+000	0.0564989	0.0564989	0.0000000E+000	0.000000000000000E+000	0.000574377
1	1	0	0	0	0	8	2103.49	1	1.09632	1.00085	0.00900307	0.23827	0	0.0661861	11	6.07425e-05	0.000000000000000E+000	196643	0.000000000000000E+000	0.000000000000000E+000	0.0661861	0.0661861	0.0000000E+000	0.000000000000000E+000	0.00109725
1	1	0	0	0	0	8	2159.49	1	1.11001	1.00009	0.0650219	0.294289	0	0.0817469	11	7.7925e-05	0.000000000000000E+000	240161	0.000000000000000E+000	0.000000000000000E+000	0.0817469	0.0817469	0.0000000E+000	0.000000000000000E+000	0.00111011
1	1	0	0	0	0	8	2215.49	1	1.11985	1.00034	0.12104	0.350307	0	0.0973076	11	9.52801e-05	0.000000000000000E+000	283598	0.000000000000000E+000	0.000000000000000E+000	0.0973076	0.0973076	0.0000000E+000	0.000000000000000E+000	0.00112024
1	1	0	0	0	0	8	2271.49	1	1.12639	1.0006	0.17706	0.406326	0	0.112868	11	0.00011276	0.000000000000000E+000	327216	0.000000000000000E+000	0.000000000000000E+000	0.112868	0.112868	0.0000000E+000	0.000000000000000E+000	0.00112707
1	1	0	1	0	0	9	2326.49	1.778	1.1972	1.77935	0.0924844	0.501812	0	0.139392	11	0.000144371	0.000000000000000E+000	382311	0.000000000000000E+000	0.000000000000000E+000	0.139392	0.139392	0.0000000E+000	0.000000000000000E+000	0.00213024
1	1	0	1	0	0	9	2382.49	1.778	1.20492	1.77839	0.192083	0.60141	0	0.167058	11	0.000177611	0.000000000000000E+000	455512	0.000000000000000E+000	0.000000000000000E+000	0.167058	0.167058	0.0000000E+000	0.000000000000000E+000	0.00214283
1	1	0	1	0	0	9	2438.49	1.778	1.21297	1.7782	0.291682	0.70101	0	0.194725	11	0.000211054	0.000000000000000E+000	527734	0.000000000000000E+000	0.000000000000000E+000	0.194725	0.194725	0.0000000E+000	0.000000000000000E+000	0.0021569
1	1	0	0	0	0	10	2493.49	3.162	1.29194	3.16274	0.123324	0.852791	0	0.236886	11	0.000264795	0.000000000000000E+000	605970	0.000000000000000E+000	0.000000000000000E+000	0.236886	0.236886	0.0000000E+000	0.000000000000000E+000	0.00408608
1	1	0	0	0	0	10	2549.49	3.162	1.3039	3.16205	0.300405	1.02987	0	0.286076	11	0.000328642	0.000000000000000E+000	725632	0.000000000000000E+000	0.000000000000000E+000	0.286076	0.286076	0.0000000E+000	0.000000000000000E+000	0.004123
1	1	0	0	0	0	10	2605.49	3.162	1.31355	3.16281	0.477486	1.20695	0	0.335265	11	0.000392999	0.000000000000000E+000	844660	0.000000000000000E+000	0.000000000000000E+000	0.335265	0.335265	0.0000000E+000	0.000000000000000E+000	0.0041545
1	1	0	1	0	0	11	2660.49	5.623	1.42897	5.6229	0.1462	1.44486	0	0.401349	11	0.000484333	0.000000000000000E+000	935582	0.000000000000000E+000	0.000000000000000E+000	0.401349	0.401349	0.0000000E+000	0.000000000000000E+000	0.00803495
1	1	0	1	0	0	11	2716.49	5.623	1.46741	5.62322	0.461094	1.75975	0	0.48882	11	0.000611044	0.000000000000000E+000	1.11181e+06	0.000000000000000E+000	0.000000000000000E+000	0.48882	0.48882	0.0000000E+000	0.000000000000000E+000	0.00825156
1	1	0	1	0	0	11	2772.49	5.623	1.50424	5.62265	0.775988	2.07464	0	0.57629	11	0.000740939	0.000000000000000E+000	1.28095e+06	0.000000000000000E+000	0.000000000000000E+000	0.57629	0.57629	0.0000000E+000	0.000000000000000E+000	0.00845779
1	1	0	0	0	0	12	2827.49	10	1.70648	9.99948	0.130001	2.44082	0	0.678005	11	0.000901672	0.000000000000000E+000	1.33975e+06	0.000000000000000E+000	0.000000000000000E+000	0.678005	0.678005	0.0000000E+000	0.000000000000000E+000	0.0170639
1	1	0	0	0	0	12	2883.49	10	1.77876	10.0004	0.690009	3.00083	0	0.833563	11	0.00117433	0.000000000000000E+000	1.58427e+06	0.000000000000000E+000	0.000000000000000E+000	0.833563	0.833563	0.0000000E+000	0.000000000000000E+000	0.0177884
1	1	0	0	0	0	12	2939.49	10	1.80993	10.0003	1.25002	3.56083	0	0.989121	11	0.00145375	0.000000000000000E+000	1.84949e+06	0.000000000000000E+000	0.000000000000000E+000	0.989121	0.989121	0.0000000E+000	0.000000000000000E+000	0.0180999
1	1	0	0	0	0	12	2994.49	10	1.83202	10.0003	1.80003	4.11085	0	1.1419	11	0.00173175	0.000000000000000E+000	2.11095e+06	0.000000000000000E+000	0.000000000000000E+000	1.1419	1.1419	0.0000000E+000	0.000000000000000E+000	0.0183208