File: Data_Lola/CoNiFeNx_400ºC_24h_13102022/Electrodes_19012023/2023_01_20_CoNiFeNx_400ºC_24h_electrode1_19012023_1_03_CP_C01.mpt
EC-Lab ASCII FILE
Nb header lines : 52

Chronopotentiometry

Run on channel : 1 (SN 21648)
User :
CE vs. WE compliance from -10 V to 10 V
Electrode connection : standard
Potential control : Ewe
Ewe ctrl range : min = -2.50 V, max = 2.50 V
Safety Limits :
	Do not start on E overload
Acquisition started on : 01/20/2023 16:29:26.125
Loaded Setting File :  C:\Users\grupogalan\Documents\EC-Lab\Data\Lole Jurado\2023_01_20_CoNiFeNx_400ºC_24h_electrode2_19012023_1.mps
Saved on :
	File : 2023_01_20_CoNiFeNx_400ºC_24h_electrode1_19012023_1_03_CP_C01.mpr
	Directory : C:\Users\grupogalan\Documents\EC-Lab\Data\Lole Jurado\
	Host : 169.254.104.159
Device : VSP (SN 1176)
Address : USB
EC-Lab for windows v11.46 (software)
Internet server v11.40 (firmware)
Command interpretor v11.40 (firmware)
Electrode material :
Initial state :
Electrolyte :
Comments :
Electrode surface area : 0.000 cm²
Characteristic mass : 0.001 g
Equivalent Weight : 0.000 g/eq.
Density : 0.000 g/cm3
Volume (V) : 0.001 cm³
Cycle Definition : Charge/Discharge alternance
Is                  10.000
unit Is             mA
vs.                 <None>
ts (h:m:s)          2:00:0.0000
EM (V)              pass
dQM                 20.000
unit dQM            mA.h
record              <Ewe>
dEs (mV)            0.00
dts (s)             1.0000
E range min (V)     -2.500
E range max (V)     2.500
I Range             10 mA
Bandwidth           5
goto Ns'            0
nc cycles           0

mode	ox/red	error	control changes	Ns changes	counter inc.	Ns	time/s	control/mA	<Ewe>/V	I/mA	dQ/C	(Q-Qo)/C	half cycle	Q charge/discharge/mA.h	I Range	Energy charge/W.h	Energy discharge/W.h	Capacitance charge/µF	Capacitance discharge/µF	Q discharge/mA.h	Q charge/mA.h	Capacity/mA.h	Efficiency/%	cycle number	P/W
1	1	0	1	0	0	0	714.855	10	0.711109	9.99999	0.00947613	0.00947613	0	0.00263226	11	1.87182e-06	0.000000000000000E+000	0.000000000000000E+000	0.000000000000000E+000	0.000000000000000E+000	0.00263226	0.00263226	0.0000000E+000	0.000000000000000E+000	0.00711108
1	1	0	1	0	0	0	877.855	10	0.707762	10.0001	1.6395	1.6395	0	0.455416	11	0.00032239	0.000000000000000E+000	4.89791e+08	0.000000000000000E+000	0.000000000000000E+000	0.455416	0.455416	0.0000000E+000	0.000000000000000E+000	0.0070777
1	1	0	1	0	0	0	1040.86	10	0.709672	10.001	3.26951	3.26951	0	0.908198	11	0.000643262	0.000000000000000E+000	2.27485e+09	0.000000000000000E+000	0.000000000000000E+000	0.908198	0.908198	0.0000000E+000	0.000000000000000E+000	0.00709743
1	1	0	1	0	0	0	1203.86	10	0.711794	9.99999	4.89954	4.89954	0	1.36098	11	0.000965065	0.000000000000000E+000	7.15846e+09	0.000000000000000E+000	0.000000000000000E+000	1.36098	1.36098	0.0000000E+000	0.000000000000000E+000	0.00711793
1	1	0	1	0	0	0	1366.86	10	0.714287	10.0002	6.52956	6.52956	0	1.81377	11	0.00128792	0.000000000000000E+000	2.05508e+09	0.000000000000000E+000	0.000000000000000E+000	1.81377	1.81377	0.0000000E+000	0.000000000000000E+000	0.00714299
1	1	0	1	0	0	0	1529.86	10	0.716771	10.0002	8.15958	8.15958	0	2.26655	11	0.00161191	0.000000000000000E+000	1.44111e+09	0.000000000000000E+000	0.000000000000000E+000	2.26655	2.26655	0.0000000E+000	0.000000000000000E+000	0.00716788
1	1	0	1	0	0	0	1692.86	10	0.719676	10.0002	9.78959	9.78959	0	2.71933	11	0.00193711	0.000000000000000E+000	1.14274e+09	0.000000000000000E+000	0.000000000000000E+000	2.71933	2.71933	0.0000000E+000	0.000000000000000E+000	0.00719689
1	1	0	1	0	0	0	1855.86	10	0.722316	10.0003	11.4196	11.4196	0	3.17211	11	0.00226354	0.000000000000000E+000	1.01898e+09	0.000000000000000E+000	0.000000000000000E+000	3.17211	3.17211	0.0000000E+000	0.000000000000000E+000	0.00722338
1	1	0	1	0	0	0	2018.86	10	0.725066	10.0008	13.0496	13.0496	0	3.6249	11	0.00259122	0.000000000000000E+000	9.34978e+08	0.000000000000000E+000	0.000000000000000E+000	3.6249	3.6249	0.0000000E+000	0.000000000000000E+000	0.00725125
1	1	0	1	0	0	0	2181.86	10	0.727832	10.0001	14.6796	14.6796	0	4.07768	11	0.00292015	0.000000000000000E+000	8.77819e+08	0.000000000000000E+000	0.000000000000000E+000	4.07768	4.07768	0.0000000E+000	0.000000000000000E+000	0.0072784
1	1	0	1	0	0	0	2344.86	10	0.730263	10.0006	16.3097	16.3097	0	4.53046	11	0.00325025	0.000000000000000E+000	8.51493e+08	0.000000000000000E+000	0.000000000000000E+000	4.53046	4.53046	0.0000000E+000	0.000000000000000E+000	0.00730309
1	1	0	1	0	0	0	2507.86	10	0.732836	9.99992	17.9397	17.9397	0	4.98324	11	0.00358146	0.000000000000000E+000	8.25703e+08	0.000000000000000E+000	0.000000000000000E+000	4.98324	4.98324	0.0000000E+000	0.000000000000000E+000	0.0073283
1	1	0	1	0	0	0	2670.86	10	0.735244	10.0003	19.5697	19.5697	0	5.43602	11	0.00391383	0.000000000000000E+000	8.10843e+08	0.000000000000000E+000	0.000000000000000E+000	5.43602	5.43602	0.0000000E+000	0.000000000000000E+000	0.00735267
1	1	0	1	0	0	0	2833.86	10	0.73772	10.0002	21.1997	21.1997	0	5.88881	11	0.00424731	0.000000000000000E+000	7.96665e+08	0.000000000000000E+000	0.000000000000000E+000	5.88881	5.88881	0.0000000E+000	0.000000000000000E+000	0.00737737
1	1	0	1	0	0	0	2996.86	10	0.739968	10.0009	22.8297	22.8297	0	6.34159	11	0.00458184	0.000000000000000E+000	7.91071e+08	0.000000000000000E+000	0.000000000000000E+000	6.34159	6.34159	0.0000000E+000	0.000000000000000E+000	0.00740033
1	1	0	1	0	0	0	3159.86	10	0.742308	9.99935	24.4597	24.4597	0	6.79437	11	0.00491741	0.000000000000000E+000	7.83998e+08	0.000000000000000E+000	0.000000000000000E+000	6.79437	6.79437	0.0000000E+000	0.000000000000000E+000	0.0074226
1	1	0	1	0	0	0	3322.86	10	0.744537	10	26.0898	26.0898	0	7.24715	11	0.00525403	0.000000000000000E+000	7.8048e+08	0.000000000000000E+000	0.000000000000000E+000	7.24715	7.24715	0.0000000E+000	0.000000000000000E+000	0.00744541
1	1	0	1	0	0	0	3485.86	10	0.74662	10.0005	27.7198	27.7198	0	7.69994	11	0.00559164	0.000000000000000E+000	7.80608e+08	0.000000000000000E+000	0.000000000000000E+000	7.69994	7.69994	0.0000000E+000	0.000000000000000E+000	0.00746657
1	1	0	1	0	0	0	3648.86	10	0.748986	9.99973	29.3498	29.3498	0	8.15272	11	0.00593022	0.000000000000000E+000	7.7488e+08	0.000000000000000E+000	0.000000000000000E+000	8.15272	8.15272	0.0000000E+000	0.000000000000000E+000	0.00748966
1	1	0	1	0	0	0	3811.86	10	0.751271	10	30.9798	30.9798	0	8.6055	11	0.00626983	0.000000000000000E+000	7.71378e+08	0.000000000000000E+000	0.000000000000000E+000	8.6055	8.6055	0.0000000E+000	0.000000000000000E+000	0.00751275
1	1	0	1	0	0	0	3974.86	10	0.753425	10.0005	32.6098	32.6098	0	9.05829	11	0.00661048	0.000000000000000E+000	7.70629e+08	0.000000000000000E+000	0.000000000000000E+000	9.05829	9.05829	0.0000000E+000	0.000000000000000E+000	0.00753462
1	1	0	1	0	0	0	4137.86	10	0.755496	9.9991	34.2398	34.2398	0	9.51107	11	0.00695212	0.000000000000000E+000	7.71404e+08	0.000000000000000E+000	0.000000000000000E+000	9.51107	9.51107	0.0000000E+000	0.000000000000000E+000	0.00755427
1	1	0	1	0	0	0	4300.86	10	0.75765	10	35.8699	35.8699	0	9.96385	11	0.00729473	0.000000000000000E+000	7.70716e+08	0.000000000000000E+000	0.000000000000000E+000	9.96385	9.96385	0.0000000E+000	0.000000000000000E+000	0.00757654
1	1	0	1	0	0	0	4463.86	10	0.759827	9.99999	37.4999	37.4999	0	10.4166	11	0.0076383	0.000000000000000E+000	7.6974e+08	0.000000000000000E+000	0.000000000000000E+000	10.4166	10.4166	0.0000000E+000	0.000000000000000E+000	0.00759826
1	1	0	1	0	0	0	4626.86	10	0.761823	10.0004	39.1299	39.1299	0	10.8694	11	0.0079828	0.000000000000000E+000	7.71578e+08	0.000000000000000E+000	0.000000000000000E+000	10.8694	10.8694	0.0000000E+000	0.000000000000000E+000	0.00761856
1	1	0	1	0	0	0	4789.86	10	0.763909	9.99992	40.7599	40.7599	0	11.3222	11	0.00832824	0.000000000000000E+000	7.7197e+08	0.000000000000000E+000	0.000000000000000E+000	11.3222	11.3222	0.0000000E+000	0.000000000000000E+000	0.00763903
1	1	0	1	0	0	0	4952.86	10	0.766008	10.0009	42.3899	42.3899	0	11.775	11	0.00867463	0.000000000000000E+000	7.72153e+08	0.000000000000000E+000	0.000000000000000E+000	11.775	11.775	0.0000000E+000	0.000000000000000E+000	0.00766079
1	1	0	1	0	0	0	5115.86	10	0.768022	10.0002	44.0199	44.0199	0	12.2278	11	0.00902191	0.000000000000000E+000	7.73459e+08	0.000000000000000E+000	0.000000000000000E+000	12.2278	12.2278	0.0000000E+000	0.000000000000000E+000	0.00768041
1	1	0	1	0	0	0	5278.86	10	0.77018	9.99916	45.65	45.65	0	12.6805	11	0.00937012	0.000000000000000E+000	7.72796e+08	0.000000000000000E+000	0.000000000000000E+000	12.6805	12.6805	0.0000000E+000	0.000000000000000E+000	0.00770116
1	1	0	1	0	0	0	5441.86	10	0.772068	9.99999	47.28	47.28	0	13.1333	11	0.00971924	0.000000000000000E+000	7.75609e+08	0.000000000000000E+000	0.000000000000000E+000	13.1333	13.1333	0.0000000E+000	0.000000000000000E+000	0.00772067
1	1	0	1	0	0	0	5604.86	10	0.774011	10.0003	48.91	48.91	0	13.5861	11	0.0100693	0.000000000000000E+000	7.77562e+08	0.000000000000000E+000	0.000000000000000E+000	13.5861	13.5861	0.0000000E+000	0.000000000000000E+000	0.00774034
1	1	0	1	0	0	0	5767.86	10	0.776135	9.99967	50.54	50.54	0	14.0389	11	0.0104202	0.000000000000000E+000	7.77225e+08	0.000000000000000E+000	0.000000000000000E+000	14.0389	14.0389	0.0000000E+000	0.000000000000000E+000	0.0077611
1	1	0	1	0	0	0	5930.86	10	0.778026	9.99961	52.17	52.17	0	14.4917	11	0.010772	0.000000000000000E+000	7.79621e+08	0.000000000000000E+000	0.000000000000000E+000	14.4917	14.4917	0.0000000E+000	0.000000000000000E+000	0.00777996
1	1	0	1	0	0	0	6093.86	10	0.780121	9.99999	53.8	53.8	0	14.9445	11	0.0111247	0.000000000000000E+000	7.79578e+08	0.000000000000000E+000	0.000000000000000E+000	14.9445	14.9445	0.0000000E+000	0.000000000000000E+000	0.0078012
1	1	0	1	0	0	0	6256.86	10	0.781923	10	55.4301	55.4301	0	15.3972	11	0.0114784	0.000000000000000E+000	7.82759e+08	0.000000000000000E+000	0.000000000000000E+000	15.3972	15.3972	0.0000000E+000	0.000000000000000E+000	0.00781927
1	1	0	1	0	0	0	6419.86	10	0.783855	9.9998	57.0601	57.0601	0	15.85	11	0.0118329	0.000000000000000E+000	7.84377e+08	0.000000000000000E+000	0.000000000000000E+000	15.85	15.85	0.0000000E+000	0.000000000000000E+000	0.00783839
1	1	0	1	0	0	0	6582.86	10	0.786007	9.99954	58.6901	58.6901	0	16.3028	11	0.0121883	0.000000000000000E+000	7.83606e+08	0.000000000000000E+000	0.000000000000000E+000	16.3028	16.3028	0.0000000E+000	0.000000000000000E+000	0.00785971
1	1	0	1	0	0	0	6745.86	10	0.788114	10.0003	60.3201	60.3201	0	16.7556	11	0.0125447	0.000000000000000E+000	7.83331e+08	0.000000000000000E+000	0.000000000000000E+000	16.7556	16.7556	0.0000000E+000	0.000000000000000E+000	0.00788138
1	1	0	1	0	0	0	6908.86	10	0.790006	9.9998	61.9501	61.9501	0	17.2084	11	0.0129019	0.000000000000000E+000	7.85202e+08	0.000000000000000E+000	0.000000000000000E+000	17.2084	17.2084	0.0000000E+000	0.000000000000000E+000	0.0078999
1	1	0	1	0	0	0	7071.86	10	0.792066	9.99973	63.5801	63.5801	0	17.6611	11	0.0132601	0.000000000000000E+000	7.8536e+08	0.000000000000000E+000	0.000000000000000E+000	17.6611	17.6611	0.0000000E+000	0.000000000000000E+000	0.00792045
1	1	0	1	0	0	0	7234.86	10	0.793933	9.99967	65.2101	65.2101	0	18.1139	11	0.0136192	0.000000000000000E+000	7.87334e+08	0.000000000000000E+000	0.000000000000000E+000	18.1139	18.1139	0.0000000E+000	0.000000000000000E+000	0.00793907
1	1	0	1	0	0	0	7397.86	10	0.7961	9.99992	66.8401	66.8401	0	18.5667	11	0.0139793	0.000000000000000E+000	7.86436e+08	0.000000000000000E+000	0.000000000000000E+000	18.5667	18.5667	0.0000000E+000	0.000000000000000E+000	0.00796094
1	1	0	1	0	0	0	7560.86	10	0.798339	10.0005	68.4702	68.4702	0	19.0195	11	0.0143403	0.000000000000000E+000	7.84939e+08	0.000000000000000E+000	0.000000000000000E+000	19.0195	19.0195	0.0000000E+000	0.000000000000000E+000	0.00798379
1	1	0	1	0	0	0	7723.86	10	0.800517	10.0004	70.1002	70.1002	0	19.4723	11	0.0147022	0.000000000000000E+000	7.84049e+08	0.000000000000000E+000	0.000000000000000E+000	19.4723	19.4723	0.0000000E+000	0.000000000000000E+000	0.00800551
1	1	0	1	0	0	0	7886.86	10	0.802582	9.99986	71.7302	71.7302	0	19.9251	11	0.0150651	0.000000000000000E+000	7.84166e+08	0.000000000000000E+000	0.000000000000000E+000	19.9251	19.9251	0.0000000E+000	0.000000000000000E+000	0.00802571
1	1	0	1	0	0	0	7913.91	10	0.803282	10.0003	72.0007	72.0007	0	20.0002	11	0.0151254	0.000000000000000E+000	7.81151e+08	0.000000000000000E+000	0.000000000000000E+000	20.0002	20.0002	0.0000000E+000	0.000000000000000E+000	0.00803306