File: Data_Lola/CoNiFeNx_400ºC_24h_13102022/Electrodes_19012023/2023_01_20_CoNiFeNx_400ºC_24h_electrode3_19012023_02_CV_C05.mpt
EC-Lab ASCII FILE
Nb header lines : 58

Cyclic Voltammetry

Run on channel : 5 (SN 30436)
User :
CE vs. WE compliance from -10 V to 10 V
Electrode connection : standard
Potential control : Ewe
Ewe ctrl range : min = -2.50 V, max = 2.50 V
Safety Limits :
	Do not start on E overload
Acquisition started on : 01/20/2023 10:11:15.490
Loaded Setting File :  C:\Users\grupogalan\Documents\EC-Lab\Data\ilario\20230118-ec\20230118_DJF1-IGB3-KOH_1M.mps
Saved on :
	File : 2023_01_20_CoNiFeNx_400ºC_24h_electrode3_19012023_02_CV_C05.mpr
	Directory : C:\Users\grupogalan\Documents\EC-Lab\Data\Lole Jurado\
	Host : 169.254.104.159
Device : VSP (SN 1176)
Address : USB
EC-Lab for windows v11.46 (software)
Internet server v11.40 (firmware)
Command interpretor v11.40 (firmware)
Electrode material :
Initial state :
Electrolyte :
Comments :
Electrode surface area : 0.001 cm²
Characteristic mass : 0.001 g
Equivalent Weight : 0.000 g/eq.
Density : 0.000 g/cm3
Volume (V) : 0.001 cm³
Record Ece
Cycle Definition : Charge/Discharge alternance
Ei (V)              0.000
vs.                 Eoc
dE/dt               10.000
dE/dt unit          mV/s
E1 (V)              1.000
vs.                 Ref
Step percent        50
N                   10
E range min (V)     -2.500
E range max (V)     2.500
I Range             Auto
I Range min         Unset
I Range max         Unset
I Range init        Unset
Bandwidth           5
E2 (V)              0.000
vs.                 Ref
nc cycles           2
Reverse Scan        1
Ef (V)              0.000
vs.                 Eoc

mode	ox/red	error	control changes	counter inc.	time/s	control/V	Ewe/V	<I>/mA	cycle number	(Q-Qo)/C	I Range	<Ece>/V	P/W	Ewe-Ece/V
2	0	0	1	0	79.6208	-0.621653	-0.619851	-0.0696301	1	0.0000000E+000	13	0.477096	4.31603e-05	-1.09695
2	0	0	1	0	86.1362	-0.556498	-0.556385	-0.0228339	1	-0.000190993	13	0.464304	1.27044e-05	-1.02069
2	0	0	1	0	92.6366	-0.491493	-0.491722	-0.00245233	1	-0.000240349	13	0.435647	1.20586e-06	-0.927369
2	1	0	0	0	99.1372	-0.426489	-0.426598	0.0102819	1	-0.000183099	13	0.39963	-4.38622e-06	-0.826228
2	1	0	0	0	105.638	-0.361484	-0.361481	0.0249479	1	-5.54096e-05	13	0.359526	-9.0182e-06	-0.721007
2	1	0	0	0	112.138	-0.296479	-0.295998	0.02317	1	0.000113028	13	0.321609	-6.85829e-06	-0.617607
2	1	0	1	0	118.639	-0.231475	-0.231519	0.024924	1	0.000279664	13	0.289601	-5.7704e-06	-0.52112
2	1	0	1	0	125.139	-0.16647	-0.167195	0.0272762	1	0.000455447	13	0.25906	-4.56045e-06	-0.426255
2	1	0	1	0	131.639	-0.101465	-0.102468	0.0339543	1	0.000656968	13	0.224021	-3.47923e-06	-0.326489
2	1	0	0	0	138.14	-0.0364605	-0.0367782	0.0362223	1	0.000890169	13	0.184904	-1.33219e-06	-0.221682
2	1	0	0	0	144.64	0.0285442	0.0285806	0.0371744	1	0.0011336	13	0.146889	1.06246e-06	-0.118308
2	1	0	0	0	151.141	0.0935489	0.0941027	0.036725	1	0.00137699	13	0.111548	3.45593e-06	-0.0174456
2	1	0	1	0	157.641	0.158554	0.158439	0.0383023	1	0.0016211	13	0.0781688	6.06859e-06	0.0802707
2	1	0	1	0	164.142	0.223558	0.22337	0.0503145	1	0.00190591	13	0.0360867	1.12388e-05	0.187284
2	1	0	1	0	170.642	0.288563	0.288564	0.0707426	1	0.00229808	13	-0.0253788	2.04138e-05	0.313942
2	1	0	0	0	177.173	0.353868	0.353584	0.103212	1	0.00286239	12	-0.109076	3.64942e-05	0.46266
2	1	0	0	0	183.673	0.418872	0.418156	0.15626	1	0.00369537	12	-0.177635	6.53413e-05	0.595791
2	1	0	0	0	190.174	0.483877	0.48397	0.250823	1	0.00499363	12	-0.212357	0.000121391	0.696327
2	1	0	1	0	196.674	0.548881	0.549308	0.401168	1	0.00708625	12	-0.254047	0.000220365	0.803355
2	1	0	1	0	203.175	0.613886	0.613337	0.721063	1	0.0105113	12	-0.338579	0.000442254	0.951916
2	1	0	1	0	209.705	0.679191	0.678824	2.68162	1	0.0199088	11	-0.75807	0.00182034	1.43689
2	1	0	0	0	216.206	0.744196	0.743833	9.26032	1	0.055691	11	-1.36806	0.00688813	2.11189
2	1	0	0	0	222.736	0.8095	0.809056	20.7977	1	0.151912	10	-1.4096	0.0168265	2.21866
2	1	0	0	0	229.236	0.874505	0.874637	33.9968	1	0.330296	10	-1.44624	0.0297349	2.32087
2	1	0	1	0	235.737	0.93951	0.939137	46.5696	1	0.593057	10	-1.47443	0.0437353	2.41356
2	1	0	1	0	242.138	0.996414	0.996743	57.0861	1	0.931595	10	-1.49475	0.0569002	2.49149
2	1	0	0	0	248.638	0.931409	0.93133	36.5107	1	1.23091	10	-1.45212	0.0340035	2.38345
2	1	0	0	0	255.139	0.866404	0.866081	22.0043	1	1.41853	10	-1.415	0.0190575	2.28108
2	1	0	0	0	261.639	0.8014	0.801756	11.81	1	1.52627	10	-1.37736	0.0094687	2.17912
2	1	0	1	0	268.14	0.736395	0.737265	5.18805	1	1.57972	10	-1.33179	0.00382496	2.06906
2	1	0	1	0	274.67	0.67109	0.670577	1.6252	1	1.60043	11	-1.22908	0.00108982	1.89966
2	1	0	1	0	281.201	0.605786	0.605931	0.324718	1	1.6059	12	-0.85818	0.000196757	1.46411
2	1	0	0	0	287.731	0.540481	0.541055	0.0337572	1	1.60679	13	-0.618813	1.82645e-05	1.15987
2	0	0	0	0	294.232	0.475476	0.475795	-0.0181156	1	1.60679	13	-0.444621	-8.6193e-06	0.920416
2	0	0	0	0	300.732	0.410472	0.411103	-0.031628	1	1.60661	13	-0.330946	-1.30024e-05	0.742049
2	0	0	1	0	307.233	0.345467	0.345549	-0.0357229	1	1.60638	13	-0.269426	-1.2344e-05	0.614974
2	0	0	1	0	313.733	0.280462	0.280486	-0.0358426	1	1.60615	13	-0.232277	-1.00534e-05	0.512763
2	0	0	1	0	320.233	0.215458	0.214467	-0.0358145	1	1.60591	13	-0.205223	-7.68105e-06	0.41969
2	0	0	0	0	326.734	0.150453	0.15063	-0.035512	1	1.60568	13	-0.184997	-5.34919e-06	0.335627
2	0	0	0	0	333.234	0.0854483	0.0862417	-0.0339624	1	1.60545	13	-0.170649	-2.92898e-06	0.25689
2	0	0	0	0	339.735	0.0204436	0.0210868	-0.0315269	1	1.60524	13	-0.160692	-6.648e-07	0.181779
2	0	0	1	1	346.136	0.0435453	0.044102	-0.014081	2	1.60509	13	-0.160592	-6.21e-07	0.204694
2	0	0	0	1	352.636	0.10855	0.108733	-0.00499959	2	1.60503	13	-0.163581	-5.43619e-07	0.272314
2	0	0	0	1	359.137	0.173555	0.173661	0.000324234	2	1.60501	13	-0.164697	5.63067e-08	0.338357
2	1	0	0	1	365.637	0.238559	0.238558	0.00530684	2	1.60503	13	-0.16548	1.26599e-06	0.404038
2	1	0	1	1	372.138	0.303564	0.303771	0.0118721	2	1.60509	13	-0.167716	3.60641e-06	0.471487
2	1	0	1	1	378.638	0.368569	0.368959	0.0219604	2	1.6052	13	-0.172789	8.10249e-06	0.541748
2	1	0	1	1	385.139	0.433574	0.433595	0.0398593	2	1.6054	13	-0.182877	1.72828e-05	0.616472
2	1	0	0	1	391.639	0.498578	0.498738	0.0681632	2	1.60575	13	-0.20004	3.39956e-05	0.698778
2	1	0	0	1	398.17	0.563883	0.563833	0.122262	2	1.60635	12	-0.229174	6.89352e-05	0.793007
2	1	0	1	1	404.67	0.628887	0.628843	0.486988	2	1.60788	12	-0.367655	0.000306239	0.996498
2	1	0	1	1	411.201	0.694192	0.693586	2.93852	2	1.61721	11	-1.05245	0.00203812	1.74604
2	1	0	1	1	417.701	0.759197	0.759537	9.88374	2	1.65613	11	-1.36588	0.00750707	2.12542
2	1	0	0	1	424.232	0.824501	0.825276	21.5984	2	1.75682	10	-1.41265	0.0178246	2.23793
2	1	0	0	1	430.732	0.889506	0.889926	35.7119	2	1.94265	10	-1.45426	0.031781	2.34418
2	1	0	0	1	437.232	0.954511	0.953196	49.9218	2	2.22154	10	-1.48772	0.0475852	2.44092
2	1	0	1	1	443.633	0.981413	0.982339	52.5373	2	2.57343	10	-1.49377	0.0516094	2.4761
2	1	0	1	1	450.134	0.916408	0.916297	34.5436	2	2.85358	10	-1.45521	0.0316522	2.3715
2	1	0	1	1	456.634	0.851403	0.850955	21.007	2	3.03216	10	-1.41926	0.0178761	2.27021
2	1	0	0	1	463.135	0.786399	0.786801	10.9525	2	3.13414	10	-1.38137	0.00861745	2.16817
2	1	0	0	1	469.665	0.721094	0.720567	4.39998	2	3.18223	11	-1.33058	0.00317048	2.05114
2	1	0	0	1	476.166	0.656089	0.655498	1.20945	2	3.19885	11	-1.17555	0.000792794	1.83104
2	1	0	1	1	482.696	0.590784	0.590813	0.204681	2	3.20269	12	-0.774865	0.000120928	1.36568
2	0	0	1	1	489.227	0.52548	0.525266	0.00658975	2	3.20318	13	-0.553405	3.46138e-06	1.07867
2	0	0	0	1	495.727	0.460475	0.461866	-0.0317398	2	3.20306	13	-0.377514	-1.46595e-05	0.839379
2	0	0	0	1	502.228	0.395471	0.396163	-0.0419831	2	3.20281	13	-0.282203	-1.66322e-05	0.678366
2	0	0	0	1	508.728	0.330466	0.331041	-0.0441642	2	3.20252	13	-0.233924	-1.46202e-05	0.564965
2	0	0	1	1	515.229	0.265461	0.264925	-0.0434994	2	3.20223	13	-0.20543	-1.15241e-05	0.470355
2	0	0	1	1	521.729	0.200457	0.200328	-0.043102	2	3.20195	13	-0.185196	-8.63452e-06	0.385524
2	0	0	1	1	528.229	0.135452	0.13553	-0.042608	2	3.20167	13	-0.16978	-5.77468e-06	0.30531
2	0	0	0	1	534.73	0.0704472	0.0694627	-0.0409101	2	3.2014	13	-0.158458	-2.84172e-06	0.227921
2	0	0	0	1	541.23	0.00544256	0.00612357	-0.0380721	2	3.20114	13	-0.150185	-2.33138e-07	0.156309
2	0	0	1	0	547.631	0.0585464	0.0590652	-0.015188	3	3.20098	13	-0.156257	-8.97082e-07	0.215323
2	0	0	1	0	554.132	0.123551	0.12386	-0.00604388	3	3.20091	13	-0.160118	-7.48598e-07	0.283979
2	0	0	0	0	560.632	0.188556	0.189069	-0.000326179	3	3.2009	13	-0.161432	-6.16704e-08	0.350501
2	0	0	0	0	567.133	0.25356	0.253268	0.00517324	3	3.20091	13	-0.163093	1.31022e-06	0.416361
2	1	0	0	0	573.633	0.318565	0.31845	0.0125672	3	3.20097	13	-0.166202	4.00202e-06	0.484652
2	1	0	1	0	580.134	0.38357	0.383468	0.0246064	3	3.20109	13	-0.172313	9.43576e-06	0.555781
2	1	0	1	0	586.634	0.448574	0.449299	0.046152	3	3.20131	13	-0.183882	2.0736e-05	0.633181
2	1	0	1	0	593.135	0.513579	0.513805	0.0798386	3	3.20172	13	-0.202718	4.10215e-05	0.716524
2	1	0	0	0	599.665	0.578884	0.578847	0.152885	3	3.20244	12	-0.237493	8.84969e-05	0.81634
2	1	0	0	0	606.166	0.643888	0.64303	0.798258	3	3.20479	12	-0.499376	0.000513304	1.14241
2	1	0	0	0	612.696	0.709193	0.708904	4.22779	3	3.21893	11	-1.30979	0.0029971	2.0187
2	1	0	1	0	619.227	0.774498	0.774006	12.6252	3	3.27115	10	-1.38785	0.00977197	2.16185
2	1	0	1	0	625.727	0.839502	0.839438	25.6413	3	3.3936	10	-1.43476	0.0215243	2.27419
2	1	0	1	0	632.227	0.904507	0.904494	40.6128	3	3.6087	10	-1.47615	0.036734	2.38065
2	1	0	0	0	638.728	0.969512	0.9696	55.5395	3	3.92136	10	-1.51	0.0538511	2.4796
2	1	0	0	0	645.129	0.966412	0.966956	50.7262	3	4.2891	10	-1.49996	0.04905	2.46691
2	1	0	1	0	651.629	0.901407	0.901857	33.6326	3	4.56082	10	-1.46306	0.0303318	2.36492
2	1	0	1	0	658.13	0.836402	0.836372	20.1807	3	4.73397	10	-1.42673	0.0168786	2.2631
2	1	0	1	0	664.63	0.771397	0.771056	9.88288	3	4.82963	10	-1.38546	0.00762025	2.15652
2	1	0	0	0	671.161	0.706093	0.706419	3.55993	3	4.8712	11	-1.32645	0.0025148	2.03287
2	1	0	0	0	677.661	0.641088	0.641135	0.850889	3	4.88395	11	-1.07628	0.000545535	1.71742
2	1	0	0	0	684.192	0.575783	0.576302	0.119352	3	4.8865	12	-0.699673	6.8783e-05	1.27598
2	0	0	1	0	690.722	0.510479	0.511138	-0.0124606	3	4.88671	13	-0.479704	-6.3691e-06	0.990842
2	0	0	1	0	697.223	0.445474	0.445001	-0.0411066	3	4.88651	13	-0.321233	-1.82925e-05	0.766233
2	0	0	1	0	703.723	0.380469	0.379708	-0.0492574	3	4.8862	13	-0.24786	-1.87034e-05	0.627568
2	0	0	0	0	710.224	0.315465	0.315723	-0.0501148	3	4.88587	13	-0.209957	-1.58224e-05	0.52568
2	0	0	0	0	716.724	0.25046	0.250712	-0.0487593	3	4.88555	13	-0.18738	-1.22245e-05	0.438092
2	0	0	0	0	723.224	0.185455	0.185381	-0.0482583	3	4.88523	13	-0.171095	-8.9462e-06	0.356477
2	0	0	1	0	729.725	0.120451	0.120776	-0.0476357	3	4.88492	13	-0.158114	-5.75326e-06	0.27889
2	0	0	1	0	736.225	0.0554461	0.0559354	-0.0456212	3	4.88461	13	-0.148838	-2.55184e-06	0.204773
2	0	0	0	1	742.626	-0.00855845	-0.00819541	-0.0424366	3	4.88433	13	-0.142443	3.47785e-07	0.134248
2	0	0	1	1	749.127	-0.0735631	-0.0727625	-0.0390511	3	4.88407	13	-0.138259	2.84146e-06	0.0654963
2	0	0	1	1	755.627	-0.138568	-0.138615	-0.0372592	3	4.88382	13	-0.134364	5.16467e-06	-0.00425076
2	0	0	1	1	762.128	-0.203573	-0.203343	-0.037572	3	4.88358	13	-0.130142	7.64001e-06	-0.0732009
2	0	0	0	1	768.628	-0.268577	-0.268293	-0.0394553	3	4.88333	13	-0.124751	1.05856e-05	-0.143542
2	0	0	0	1	775.129	-0.333582	-0.33312	-0.0427261	3	4.88306	13	-0.118679	1.42329e-05	-0.214441
2	0	0	0	1	781.629	-0.398587	-0.398998	-0.0473089	3	4.88276	13	-0.111443	1.88762e-05	-0.287555
2	0	0	1	1	788.13	-0.463591	-0.463989	-0.0532895	3	4.88243	13	-0.10308	2.47257e-05	-0.360909
2	0	0	1	1	794.63	-0.528596	-0.529033	-0.0612379	3	4.88206	13	-0.0927216	3.23969e-05	-0.436312
2	0	0	1	1	801.13	-0.593601	-0.593289	-0.0721797	3	4.88162	13	-0.0795947	4.28235e-05	-0.513695
2	0	0	1	1	803.956	-0.621853	-0.622169	-0.0841307	3	4.8814	13	-0.0729165	5.23435e-05	-0.549253