File: Data_Lola/CoNiFeNx_400ºC_24h_13102022/Electrodes_19012023/2023_01_20_CoNiFeNx_400ºC_24h_electrode2_19012023_C05.mpt
EC-Lab ASCII FILE
Nb header lines : 64

Potentio Electrochemical Impedance Spectroscopy

Run on channel : 5 (SN 30436)
User :
CE vs. WE compliance from -10 V to 10 V
Electrode connection : standard
Potential control : Ewe
Ewe ctrl range : min = -2.50 V, max = 2.50 V
Safety Limits :
	Do not start on E overload
Acquisition started on : 01/20/2023 12:55:05.618
Loaded Setting File :  NONE
Saved on :
	File : 2023_01_20_CoNiFeNx_400ºC_24h_electrode2_19012023_C05.mpr
	Directory : C:\Users\grupogalan\Documents\EC-Lab\Data\Lole Jurado\
	Host : 169.254.104.159
Device : VSP (SN 1176)
Address : USB
EC-Lab for windows v11.46 (software)
Internet server v11.40 (firmware)
Command interpretor v11.40 (firmware)
Electrode material :
Initial state :
Electrolyte :
Comments :
Electrode surface area : 0.001 cm²
Characteristic mass : 0.001 g
Equivalent Weight : 0.000 g/eq.
Density : 0.000 g/cm3
Volume (V) : 0.001 cm³
Record Ece
Cycle Definition : Charge/Discharge alternance
Mode                Single sine
E (V)               0.0000
vs.                 Eoc
tE (h:m:s)          0:00:0.0000
record              0
dI                  0.000
unit dI             mA
dt (s)              0.000
fi                  200.000
unit fi             kHz
ff                  100.000
unit ff             mHz
Nd                  6
Points              per decade
spacing             Logarithmic
Va (mV)             10.0
pw                  0.10
Na                  2
corr                0
E range min (V)     -2.500
E range max (V)     2.500
I Range             Auto
Bandwidth           5
nc cycles           0
goto Ns'            0
nr cycles           0
inc. cycle          0

freq/Hz	Re(Z)/Ohm	-Im(Z)/Ohm	|Z|/Ohm	Phase(Z)/deg	time/s	<Ewe>/V	<I>/mA	Cs/µF	Cp/µF	cycle number	I Range	|Ewe|/V	|I|/A	Ns	(Q-Qo)/mA.h	<Ece>/V	|Ece|/V	Phase(Zce)/deg	|Zce|/Ohm	Re(Zce)/Ohm	-Im(Zce)/Ohm	Phase(Zwe-ce)/deg	|Zwe-ce|/Ohm	Re(Zwe-ce)/Ohm	-Im(Zwe-ce)/Ohm	Re(Y)/Ohm-1	Im(Y)/Ohm-1	|Y|/Ohm-1	Phase(Y)/deg	dq/mA.h
199998	1.52329	-1.47102	2.11762	43.9999	2.05755	-0.0814757	-0.0878881	-0.540972	-0.261046	1	9	0.00731784	0.00345568	0	-2.71462e-05	-0.088854	0.00206778	-47.7104	0.598369	0.40263	0.442645	28.1007	2.18329	1.92592	-1.02838	0.339693	-0.328036	0.472228	-43.9999	-2.71462e-05
91291.2	0.805948	-0.397951	0.898842	26.2787	2.93352	-0.0814417	-0.169956	-4.38088	-0.858725	1	9	0.00959824	0.0106784	0	-8.38471e-05	-0.0992453	0.0108433	6.88296	1.01544	1.00812	-0.121692	15.9844	1.88703	1.81407	-0.519643	0.997563	-0.492564	1.11254	-26.2787	-2.93046e-05
41669.8	0.714678	0.0127495	0.714792	-1.02202	4.17554	-0.0816234	-0.197013	299.576	0.0953084	1	9	0.0097876	0.0136929	0	-0.000133606	-0.0783481	0.014315	5.6177	1.04543	1.04041	-0.102337	2.92211	1.75737	1.75508	-0.0895878	1.39879	0.0249535	1.39901	1.02202	-1.04582e-05
19020.9	0.778639	0.273758	0.825362	-19.3709	5.17353	-0.0814086	-0.300138	30.5647	3.36253	1	9	0.00893571	0.0108264	0	-0.000369206	-0.0856067	0.0114974	1.38374	1.06198	1.06167	-0.025645	-7.67842	1.85696	1.84031	0.248113	1.143	0.401863	1.21159	19.3709	-0.000208165
8684.68	0.872648	0.401483	0.960574	-24.706	6.04952	-0.081297	-0.163769	45.6456	7.97392	1	9	0.00961804	0.0100128	0	-0.0003872	-0.0867337	0.0109487	-1.2002	1.09347	1.09323	0.0229037	-12.1819	2.01116	1.96588	0.424387	0.945752	0.435117	1.04104	24.706	1.1845e-06
3960.08	0.944696	0.915366	1.31543	-44.0966	6.72781	-0.0825911	-0.190864	43.9058	21.2608	1	9	0.0095749	0.00727893	0	-0.000408861	-0.103371	0.00808005	-8.69357	1.11006	1.09731	0.167785	-27.9431	2.31149	2.042	1.08315	0.545958	0.529008	0.76021	44.0966	-1.20345e-05
1808.26	1.07731	2.05577	2.32095	-62.3435	7.80809	-0.0812992	-0.161533	42.8138	33.5894	1	9	0.0106775	0.00460051	0	-0.000466257	-0.104479	0.00510073	-11.2597	1.10873	1.08739	0.216487	-46.3886	3.13833	2.1647	2.27226	0.199991	0.381631	0.430858	62.3435	-1.67984e-05
825.264	0.952678	4.26078	4.36599	-77.3964	10.2188	-0.0811835	-0.0381063	45.2625	43.1074	1	10	0.0110895	0.00253998	0	-0.000537106	-0.0876506	0.00303599	-14.3623	1.19528	1.15792	0.296492	-65.1498	5.02229	2.1106	4.55727	0.0499783	0.223524	0.229043	77.3964	-4.49967e-05
377.051	1.69756	8.51207	8.6797	-78.7215	11.1098	-0.0816358	-0.0332895	49.5889	47.6921	1	10	0.0106226	0.00122384	0	-0.000545614	-0.0846517	0.00185612	-37.942	1.51663	1.19606	0.932521	-72.966	9.87793	2.89363	9.44459	0.0225329	0.112986	0.115211	78.7215	-3.0164e-06
172.037	2.14364	17.7657	17.8946	-83.1198	11.9965	-0.081513	-0.0227425	52.0734	51.3261	1	10	0.0104381	0.000583309	0	-0.000549293	-0.069867	0.00149968	-76.2314	2.57099	0.611897	2.49711	-82.2559	20.4493	2.75554	20.2628	0.00669438	0.0554805	0.0558829	83.1198	-2.71948e-06
78.5176	6.34282	35.9469	36.5022	-79.9932	13.3427	-0.0806952	-0.00998566	56.3887	54.686	1	11	0.00959332	0.000262815	0	-0.000551833	-0.093935	0.00168221	-38.7124	6.40072	4.99445	4.00309	-74.1568	41.5275	11.3373	39.95	0.00476042	0.0269789	0.0273956	79.9932	-9.96617e-07
35.8372	10.8332	73.0459	73.8448	-81.5641	14.2392	-0.0807146	-0.000327766	60.7982	59.4898	1	11	0.00959376	0.000129918	0	-0.000552292	-0.0776605	0.00095273	47.5399	7.33333	4.95055	-5.41015	-76.8643	69.453	15.7838	67.6357	0.00198663	0.0133954	0.0135419	81.5641	1.6097e-07
16.367	16.4537	152.876	153.759	-83.857	15.3351	-0.0809918	-0.000679015	63.6083	62.8799	1	12	0.00975859	6.3467e-05	0	-0.000552528	-0.102989	0.00128066	-79.164	20.1784	3.79352	19.8186	-83.313	173.877	20.2473	172.694	0.000695963	0.00646636	0.0065037	83.857	1.59151e-07
7.46893	80.4707	300.949	311.521	-75.0299	16.0487	-0.0800337	-0.00123536	70.8059	66.0812	1	12	0.0102236	3.28184e-05	0	-0.000552775	-0.0848236	0.00124	-50.447	37.7836	24.0603	29.1325	-72.4279	346.237	104.531	330.081	0.000829205	0.00310111	0.00321005	75.0299	-2.49195e-07
3.4086	116.772	552.191	564.403	-78.0596	17.1324	-0.0808556	-0.000436757	84.5581	80.9386	1	12	0.00900334	1.5952e-05	0	-0.000552667	-0.0869057	0.000670161	11.508	42.0112	41.1667	-8.38141	-73.8051	566.28	157.939	543.81	0.000366573	0.00173345	0.00177178	78.0596	3.3829e-08
1.55627	331.596	1242.56	1286.05	-75.058	20.5841	-0.0803644	-0.000412738	82.303	76.8313	1	12	0.0105374	8.19363e-06	0	-0.000553134	-0.0704592	0.00132211	-65.118	161.359	67.8918	146.381	-73.9537	1445.25	399.487	1388.94	0.000200491	0.000751285	0.000777577	75.058	-2.59955e-07
0.710357	655.605	2264.38	2357.38	-73.8527	41.3838	-0.0809829	-0.000562234	98.9452	91.2924	1	13	0.0100916	4.28085e-06	0	-0.000555441	-0.07193	0.000559395	-67.1186	130.674	50.8093	120.391	-73.4997	2487.2	706.414	2384.77	0.000117973	0.000407466	0.0004242	73.8527	-1.82277e-06
0.324439	1198.05	4227.26	4393.75	-74.1767	107.762	-0.081098	-0.000365509	116.045	107.417	1	13	0.010113	2.30168e-06	0	-0.000563201	-0.129158	0.000724545	-64.5899	314.789	135.074	284.336	-73.5382	4704.44	1333.12	4511.6	6.20588e-05	0.000218972	0.000227596	74.1767	-3.43647e-06
0.147897	2906.11	7432.06	7980.03	-68.6434	250.416	-0.081116	-0.000151038	144.795	125.592	1	13	0.00976546	1.22374e-06	0	-0.000575264	-0.0901147	0.000579333	-51.8391	473.413	292.508	372.235	-67.7136	8434.34	3198.61	7804.29	4.56354e-05	0.000116708	0.000125313	68.6434	-5.62189e-06
0.0999041	5645.75	11202.3	12544.5	-63.2527	372.607	-0.0810903	0.000216944	142.21	113.405	1	13	0.0100768	8.03285e-07	0	-0.00057584	-0.0855303	0.000612786	-58.4163	762.85	399.538	649.854	-62.9757	13304.8	6045.29	11852.1	3.58767e-05	7.11864e-05	7.9716e-05	63.2527	-5.76652e-07