File: Data_Lola/CoNiFeNx_400ºC_24h_13102022/Electrodes_19012023/2023_01_20_CoNiFeNx_400ºC_24h_electrode2_19012023_1_03_CP_C01.mpt
EC-Lab ASCII FILE
Nb header lines : 52

Chronopotentiometry

Run on channel : 1 (SN 21648)
User :
CE vs. WE compliance from -10 V to 10 V
Electrode connection : standard
Potential control : Ewe
Ewe ctrl range : min = -2.50 V, max = 2.50 V
Safety Limits :
	Do not start on E overload
Acquisition started on : 01/20/2023 13:04:21.533
Loaded Setting File :  NONE
Saved on :
	File : 2023_01_20_CoNiFeNx_400ºC_24h_electrode2_19012023_1_03_CP_C01.mpr
	Directory : C:\Users\grupogalan\Documents\EC-Lab\Data\Lole Jurado\
	Host : 169.254.104.159
Device : VSP (SN 1176)
Address : USB
EC-Lab for windows v11.46 (software)
Internet server v11.40 (firmware)
Command interpretor v11.40 (firmware)
Electrode material :
Initial state :
Electrolyte :
Comments :
Electrode surface area : 0.000 cm²
Characteristic mass : 0.001 g
Equivalent Weight : 0.000 g/eq.
Density : 0.000 g/cm3
Volume (V) : 0.001 cm³
Cycle Definition : Charge/Discharge alternance
Is                  10.000
unit Is             mA
vs.                 <None>
ts (h:m:s)          2:00:0.0000
EM (V)              pass
dQM                 20.000
unit dQM            mA.h
record              <Ewe>
dEs (mV)            0.00
dts (s)             1.0000
E range min (V)     -2.500
E range max (V)     2.500
I Range             10 mA
Bandwidth           5
goto Ns'            0
nc cycles           0

mode	ox/red	error	control changes	Ns changes	counter inc.	Ns	time/s	control/mA	<Ewe>/V	I/mA	dQ/C	(Q-Qo)/C	half cycle	Q charge/discharge/mA.h	I Range	Energy charge/W.h	Energy discharge/W.h	Capacitance charge/µF	Capacitance discharge/µF	Q discharge/mA.h	Q charge/mA.h	Capacity/mA.h	Efficiency/%	cycle number	P/W
1	1	0	0	0	0	0	946.96	10	0.72713	9.9998	0.00947616	0.00947616	0	0.00263227	11	1.914e-06	0.000000000000000E+000	0.000000000000000E+000	0.000000000000000E+000	0.000000000000000E+000	0.00263227	0.00263227	0.0000000E+000	0.000000000000000E+000	0.00727115
1	1	0	0	0	0	0	1109.96	10	0.727824	10.0002	1.6395	1.6395	0	0.455416	11	0.000331215	0.000000000000000E+000	2.3647e+09	0.000000000000000E+000	0.000000000000000E+000	0.455416	0.455416	0.0000000E+000	0.000000000000000E+000	0.00727836
1	1	0	0	0	0	0	1272.96	10	0.732574	9.99922	3.26952	3.26952	0	0.908199	11	0.000661761	0.000000000000000E+000	6.00573e+08	0.000000000000000E+000	0.000000000000000E+000	0.908199	0.908199	0.0000000E+000	0.000000000000000E+000	0.00732517
1	1	0	0	0	0	0	1435.96	10	0.737919	9.99992	4.89954	4.89954	0	1.36098	11	0.000994613	0.000000000000000E+000	4.54142e+08	0.000000000000000E+000	0.000000000000000E+000	1.36098	1.36098	0.0000000E+000	0.000000000000000E+000	0.00737913
1	1	0	0	0	0	0	1598.96	10	0.74369	9.99992	6.52956	6.52956	0	1.81377	11	0.00133005	0.000000000000000E+000	3.94295e+08	0.000000000000000E+000	0.000000000000000E+000	1.81377	1.81377	0.0000000E+000	0.000000000000000E+000	0.00743685
1	1	0	0	0	0	0	1761.96	10	0.749563	10.0002	8.15957	8.15957	0	2.26655	11	0.00166816	0.000000000000000E+000	3.63728e+08	0.000000000000000E+000	0.000000000000000E+000	2.26655	2.26655	0.0000000E+000	0.000000000000000E+000	0.00749581
1	1	0	0	0	0	0	1924.96	10	0.754655	10.0002	9.78959	9.78959	0	2.71933	11	0.00200874	0.000000000000000E+000	3.55665e+08	0.000000000000000E+000	0.000000000000000E+000	2.71933	2.71933	0.0000000E+000	0.000000000000000E+000	0.00754668
1	1	0	0	0	0	0	2087.96	10	0.759326	9.99999	11.4196	11.4196	0	3.17211	11	0.00235155	0.000000000000000E+000	3.54691e+08	0.000000000000000E+000	0.000000000000000E+000	3.17211	3.17211	0.0000000E+000	0.000000000000000E+000	0.00759325
1	1	0	0	0	0	0	2250.96	10	0.764163	10.0007	13.0496	13.0496	0	3.6249	11	0.00269648	0.000000000000000E+000	3.52385e+08	0.000000000000000E+000	0.000000000000000E+000	3.6249	3.6249	0.0000000E+000	0.000000000000000E+000	0.00764215
1	1	0	0	0	0	0	2413.96	10	0.768316	10.0004	14.6796	14.6796	0	4.07768	11	0.00304345	0.000000000000000E+000	3.56423e+08	0.000000000000000E+000	0.000000000000000E+000	4.07768	4.07768	0.0000000E+000	0.000000000000000E+000	0.00768349
1	1	0	0	0	0	0	2576.96	10	0.771028	9.99992	16.3097	16.3097	0	4.53046	11	0.00339175	0.000000000000000E+000	3.71535e+08	0.000000000000000E+000	0.000000000000000E+000	4.53046	4.53046	0.0000000E+000	0.000000000000000E+000	0.00771022
1	1	0	0	0	0	0	2739.96	10	0.775048	9.99929	17.9397	17.9397	0	4.98324	11	0.00374178	0.000000000000000E+000	3.74386e+08	0.000000000000000E+000	0.000000000000000E+000	4.98324	4.98324	0.0000000E+000	0.000000000000000E+000	0.00774993
1	1	0	0	0	0	0	2902.96	10	0.778675	9.99954	19.5697	19.5697	0	5.43603	11	0.00409351	0.000000000000000E+000	3.79666e+08	0.000000000000000E+000	0.000000000000000E+000	5.43603	5.43603	0.0000000E+000	0.000000000000000E+000	0.00778639
1	1	0	0	0	0	0	3065.96	10	0.782251	10.0002	21.1997	21.1997	0	5.88881	11	0.00444686	0.000000000000000E+000	3.84605e+08	0.000000000000000E+000	0.000000000000000E+000	5.88881	5.88881	0.0000000E+000	0.000000000000000E+000	0.0078227
1	1	0	0	0	0	0	3228.96	10	0.785798	9.99992	22.8297	22.8297	0	6.34159	11	0.00480185	0.000000000000000E+000	3.89135e+08	0.000000000000000E+000	0.000000000000000E+000	6.34159	6.34159	0.0000000E+000	0.000000000000000E+000	0.00785792
1	1	0	0	0	0	0	3391.96	10	0.789332	9.99967	24.4597	24.4597	0	6.79437	11	0.00515835	0.000000000000000E+000	3.93234e+08	0.000000000000000E+000	0.000000000000000E+000	6.79437	6.79437	0.0000000E+000	0.000000000000000E+000	0.00789306
1	1	0	0	0	0	0	3554.96	10	0.792433	9.9998	26.0898	26.0898	0	7.24716	11	0.00551637	0.000000000000000E+000	3.99518e+08	0.000000000000000E+000	0.000000000000000E+000	7.24716	7.24716	0.0000000E+000	0.000000000000000E+000	0.00792417
1	1	0	0	0	0	0	3717.96	10	0.795866	10.0009	27.7198	27.7198	0	7.69994	11	0.00587591	0.000000000000000E+000	4.03278e+08	0.000000000000000E+000	0.000000000000000E+000	7.69994	7.69994	0.0000000E+000	0.000000000000000E+000	0.00795941
1	1	0	0	0	0	0	3880.96	10	0.798812	10.0002	29.3498	29.3498	0	8.15272	11	0.00623694	0.000000000000000E+000	4.09448e+08	0.000000000000000E+000	0.000000000000000E+000	8.15272	8.15272	0.0000000E+000	0.000000000000000E+000	0.00798831
1	1	0	0	0	0	0	4043.96	10	0.802055	10	30.9798	30.9798	0	8.60551	11	0.00659942	0.000000000000000E+000	4.13479e+08	0.000000000000000E+000	0.000000000000000E+000	8.60551	8.60551	0.0000000E+000	0.000000000000000E+000	0.00802059
1	1	0	0	0	0	0	4206.96	10	0.805156	10.0006	32.6098	32.6098	0	9.05829	11	0.00696334	0.000000000000000E+000	4.1794e+08	0.000000000000000E+000	0.000000000000000E+000	9.05829	9.05829	0.0000000E+000	0.000000000000000E+000	0.00805206
1	1	0	0	0	0	0	4369.96	10	0.808955	10.0006	34.2399	34.2399	0	9.51107	11	0.00732874	0.000000000000000E+000	4.18452e+08	0.000000000000000E+000	0.000000000000000E+000	9.51107	9.51107	0.0000000E+000	0.000000000000000E+000	0.00809
1	1	0	0	0	0	0	4532.96	10	0.811986	9.9998	35.8699	35.8699	0	9.96386	11	0.00769567	0.000000000000000E+000	4.22718e+08	0.000000000000000E+000	0.000000000000000E+000	9.96386	9.96386	0.0000000E+000	0.000000000000000E+000	0.00811969
1	1	0	0	0	0	0	4695.96	10	0.815346	9.99986	37.4999	37.4999	0	10.4166	11	0.00806405	0.000000000000000E+000	4.25091e+08	0.000000000000000E+000	0.000000000000000E+000	10.4166	10.4166	0.0000000E+000	0.000000000000000E+000	0.00815335
1	1	0	0	0	0	0	4858.96	10	0.818593	10	39.1299	39.1299	0	10.8694	11	0.00843394	0.000000000000000E+000	4.27824e+08	0.000000000000000E+000	0.000000000000000E+000	10.8694	10.8694	0.0000000E+000	0.000000000000000E+000	0.00818597
1	1	0	0	0	0	0	5021.96	10	0.822151	10.0004	40.7599	40.7599	0	11.3222	11	0.00880539	0.000000000000000E+000	4.28958e+08	0.000000000000000E+000	0.000000000000000E+000	11.3222	11.3222	0.0000000E+000	0.000000000000000E+000	0.00822181
1	1	0	0	0	0	0	5184.96	10	0.825483	10.0003	42.39	42.39	0	11.775	11	0.00917842	0.000000000000000E+000	4.31e+08	0.000000000000000E+000	0.000000000000000E+000	11.775	11.775	0.0000000E+000	0.000000000000000E+000	0.00825508
1	1	0	0	0	0	0	5347.96	10	0.829023	10.0007	44.02	44.02	0	12.2278	11	0.0095532	0.000000000000000E+000	4.32022e+08	0.000000000000000E+000	0.000000000000000E+000	12.2278	12.2278	0.0000000E+000	0.000000000000000E+000	0.00829085
1	1	0	0	0	0	0	5510.96	10	0.832787	10.0003	45.65	45.65	0	12.6806	11	0.0099295	0.000000000000000E+000	4.32061e+08	0.000000000000000E+000	0.000000000000000E+000	12.6806	12.6806	0.0000000E+000	0.000000000000000E+000	0.00832812
1	1	0	0	0	0	0	5673.96	10	0.837006	9.99916	47.28	47.28	0	13.1333	11	0.0103075	0.000000000000000E+000	4.30304e+08	0.000000000000000E+000	0.000000000000000E+000	13.1333	13.1333	0.0000000E+000	0.000000000000000E+000	0.00836936
1	1	0	0	0	0	0	5836.96	10	0.840682	9.99999	48.91	48.91	0	13.5861	11	0.0106874	0.000000000000000E+000	4.30729e+08	0.000000000000000E+000	0.000000000000000E+000	13.5861	13.5861	0.0000000E+000	0.000000000000000E+000	0.00840681
1	1	0	0	0	0	0	5999.96	10	0.845372	10.0009	50.5401	50.5401	0	14.0389	11	0.0110691	0.000000000000000E+000	4.2743e+08	0.000000000000000E+000	0.000000000000000E+000	14.0389	14.0389	0.0000000E+000	0.000000000000000E+000	0.00845451
1	1	0	0	0	0	0	6162.96	10	0.850106	10.0004	52.1701	52.1701	0	14.4917	11	0.0114529	0.000000000000000E+000	4.24229e+08	0.000000000000000E+000	0.000000000000000E+000	14.4917	14.4917	0.0000000E+000	0.000000000000000E+000	0.00850138
1	1	0	0	0	0	0	6325.96	10	0.853616	9.99992	53.8001	53.8001	0	14.9445	11	0.0118386	0.000000000000000E+000	4.25344e+08	0.000000000000000E+000	0.000000000000000E+000	14.9445	14.9445	0.0000000E+000	0.000000000000000E+000	0.0085361
1	1	0	0	0	0	0	6488.96	10	0.85795	10.0002	55.4301	55.4301	0	15.3973	11	0.0122261	0.000000000000000E+000	4.23713e+08	0.000000000000000E+000	0.000000000000000E+000	15.3973	15.3973	0.0000000E+000	0.000000000000000E+000	0.00857971
1	1	0	0	0	0	0	6651.96	10	0.860953	9.99999	57.0601	57.0601	0	15.85	11	0.0126152	0.000000000000000E+000	4.26387e+08	0.000000000000000E+000	0.000000000000000E+000	15.85	15.85	0.0000000E+000	0.000000000000000E+000	0.00860951
1	1	0	0	0	0	0	6814.96	10	0.863228	10.0002	58.6901	58.6901	0	16.3028	11	0.0130057	0.000000000000000E+000	4.31236e+08	0.000000000000000E+000	0.000000000000000E+000	16.3028	16.3028	0.0000000E+000	0.000000000000000E+000	0.00863243
1	1	0	0	0	0	0	6977.96	10	0.865504	9.99967	60.3201	60.3201	0	16.7556	11	0.0133973	0.000000000000000E+000	4.35921e+08	0.000000000000000E+000	0.000000000000000E+000	16.7556	16.7556	0.0000000E+000	0.000000000000000E+000	0.00865476
1	1	0	0	0	0	0	7140.96	10	0.868082	9.99967	61.9502	61.9502	0	17.2084	11	0.0137899	0.000000000000000E+000	4.39514e+08	0.000000000000000E+000	0.000000000000000E+000	17.2084	17.2084	0.0000000E+000	0.000000000000000E+000	0.00868053
1	1	0	0	0	0	0	7303.96	10	0.869768	9.99916	63.5802	63.5802	0	17.6612	11	0.0141836	0.000000000000000E+000	4.45747e+08	0.000000000000000E+000	0.000000000000000E+000	17.6612	17.6612	0.0000000E+000	0.000000000000000E+000	0.00869695
1	1	0	0	0	0	0	7466.96	10	0.872353	9.99935	65.2102	65.2102	0	18.1139	11	0.0145782	0.000000000000000E+000	4.49037e+08	0.000000000000000E+000	0.000000000000000E+000	18.1139	18.1139	0.0000000E+000	0.000000000000000E+000	0.00872296
1	1	0	0	0	0	0	7629.96	10	0.874121	9.99999	66.8402	66.8402	0	18.5667	11	0.0149737	0.000000000000000E+000	4.54724e+08	0.000000000000000E+000	0.000000000000000E+000	18.5667	18.5667	0.0000000E+000	0.000000000000000E+000	0.0087412
1	1	0	0	0	0	0	7792.96	10	0.876015	10	68.4702	68.4702	0	19.0195	11	0.0153703	0.000000000000000E+000	4.59888e+08	0.000000000000000E+000	0.000000000000000E+000	19.0195	19.0195	0.0000000E+000	0.000000000000000E+000	0.00876019
1	1	0	0	0	0	0	7955.96	10	0.878733	10.0003	70.1003	70.1003	0	19.4723	11	0.0157678	0.000000000000000E+000	4.62393e+08	0.000000000000000E+000	0.000000000000000E+000	19.4723	19.4723	0.0000000E+000	0.000000000000000E+000	0.0087876
1	1	0	0	0	0	0	8118.96	10	0.882093	9.99967	71.7303	71.7303	0	19.9251	11	0.0161663	0.000000000000000E+000	4.62888e+08	0.000000000000000E+000	0.000000000000000E+000	19.9251	19.9251	0.0000000E+000	0.000000000000000E+000	0.00882064
1	1	0	0	0	0	0	8146.01	10	0.882587	9.99967	72.0008	72.0008	0	20.0002	11	0.0162326	0.000000000000000E+000	4.63156e+08	0.000000000000000E+000	0.000000000000000E+000	20.0002	20.0002	0.0000000E+000	0.000000000000000E+000	0.00882558