File: Data_Lola/CoNiFeNx_400ºC_24h_13102022/Electrodes_19012023/2023_01_20_CoNiFeNx_400ºC_24h_electrode1_19012023_1_01_CV_C01.mpt
EC-Lab ASCII FILE
Nb header lines : 57

Cyclic Voltammetry

Run on channel : 1 (SN 21648)
User :
CE vs. WE compliance from -10 V to 10 V
Electrode connection : standard
Potential control : Ewe
Ewe ctrl range : min = -2.50 V, max = 2.50 V
Safety Limits :
	Do not start on E overload
Acquisition started on : 01/20/2023 16:29:26.125
Loaded Setting File :  C:\Users\grupogalan\Documents\EC-Lab\Data\Lole Jurado\2023_01_20_CoNiFeNx_400ºC_24h_electrode2_19012023_1.mps
Saved on :
	File : 2023_01_20_CoNiFeNx_400ºC_24h_electrode1_19012023_1_01_CV_C01.mpr
	Directory : C:\Users\grupogalan\Documents\EC-Lab\Data\Lole Jurado\
	Host : 169.254.104.159
Device : VSP (SN 1176)
Address : USB
EC-Lab for windows v11.46 (software)
Internet server v11.40 (firmware)
Command interpretor v11.40 (firmware)
Electrode material :
Initial state :
Electrolyte :
Comments :
Electrode surface area : 0.000 cm²
Characteristic mass : 0.001 g
Equivalent Weight : 0.000 g/eq.
Density : 0.000 g/cm3
Volume (V) : 0.001 cm³
Cycle Definition : Charge/Discharge alternance
Ei (V)              0.000
vs.                 Eoc
dE/dt               10.000
dE/dt unit          mV/s
E1 (V)              1.000
vs.                 Ref
Step percent        50
N                   10
E range min (V)     -2.500
E range max (V)     2.500
I Range             Auto
I Range min         Unset
I Range max         Unset
I Range init        Unset
Bandwidth           5
E2 (V)              0.000
vs.                 Ref
nc cycles           2
Reverse Scan        1
Ef (V)              0.000
vs.                 Eoc

mode	ox/red	error	control changes	counter inc.	time/s	control/V	Ewe/V	<I>/mA	cycle number	(Q-Qo)/C	I Range	P/W
2	1	0	0	0	0.000000000000000E+000	-0.0714016	-0.0718247	0.048122	1	0.0000000E+000	13	-3.45635e-06
2	1	0	1	0	4.3852	-0.0275508	-0.0310001	0.00270913	1	1.01358e-05	12	-8.39833e-08
2	1	0	1	0	8.7852	0.01645	0.0114104	0.00521097	1	2.97164e-05	12	5.94595e-08
2	1	0	0	0	13.1854	0.0604508	0.0606075	0.00744105	1	5.95248e-05	12	4.50984e-07
2	1	0	0	0	17.5854	0.104452	0.103316	0.0123332	1	0.00010381	12	1.27421e-06
2	1	0	1	0	21.9856	0.148452	0.147015	0.0224994	1	0.000180914	12	3.30775e-06
2	1	0	1	0	26.3856	0.192453	0.191606	0.0315678	1	0.000303883	12	6.04856e-06
2	1	0	1	0	30.7856	0.236454	0.234379	0.0411602	1	0.000465983	12	9.64709e-06
2	1	0	0	0	35.1858	0.280455	0.278906	0.0540046	1	0.000677601	12	1.50622e-05
2	1	0	0	0	39.5858	0.324456	0.324545	0.0757092	1	0.000966022	12	2.4571e-05
2	1	0	1	0	43.986	0.368457	0.367976	0.115493	1	0.00138876	12	4.24986e-05
2	1	0	1	0	48.386	0.412457	0.40993	0.173771	1	0.00202644	12	7.12341e-05
2	1	0	1	0	52.786	0.456458	0.456534	0.262851	1	0.00298313	12	0.00012
2	1	0	0	0	57.1862	0.500459	0.496956	0.37338	1	0.00439638	12	0.000185554
2	1	0	0	0	61.5862	0.54446	0.541588	0.501716	1	0.00632371	12	0.000271723
2	1	0	1	0	65.9864	0.588461	0.585759	0.718266	1	0.00893607	12	0.000420731
2	1	0	1	0	70.4164	0.632761	0.632358	1.96221	1	0.0141005	11	0.00124082
2	1	0	0	0	74.8166	0.676762	0.676118	6.36943	1	0.0311054	11	0.00430649
2	1	0	0	0	79.2466	0.721063	0.719715	14.1913	1	0.0755489	10	0.0102137
2	1	0	0	0	83.6466	0.765064	0.76673	24.5934	1	0.160064	10	0.0188565
2	1	0	1	0	88.0468	0.809065	0.807424	37.1168	1	0.295195	10	0.029969
2	1	0	1	0	92.4468	0.853065	0.854247	51.1216	1	0.488894	10	0.0436705
2	1	0	0	0	96.847	0.897066	0.89635	66.1017	1	0.746682	10	0.0592502
2	1	0	0	0	101.247	0.941067	0.941185	81.5749	1	1.07173	10	0.0767771
2	1	0	0	0	105.647	0.985068	0.983092	97.4654	1	1.46581	10	0.0958174
2	1	0	0	0	109.898	0.972468	0.972066	90.8856	1	1.88221	10	0.0883468
2	1	0	0	0	114.298	0.928467	0.927867	73.4164	1	2.24321	10	0.0681207
2	1	0	0	0	118.698	0.884466	0.883173	57.4623	1	2.53057	10	0.0507492
2	1	0	1	0	123.098	0.840465	0.841976	43.3044	1	2.75146	10	0.0364612
2	1	0	1	0	127.498	0.796464	0.794546	30.8613	1	2.91397	10	0.0245207
2	1	0	0	0	131.898	0.752464	0.754587	20.3374	1	3.02586	10	0.0153463
2	1	0	0	0	136.298	0.708463	0.709278	11.8465	1	3.0958	10	0.00840249
2	1	0	1	0	140.698	0.664462	0.663491	5.62446	1	3.13335	10	0.00373178
2	1	0	1	0	145.128	0.620161	0.61867	1.85172	1	3.14896	11	0.0011456
2	1	0	1	0	149.558	0.57586	0.57538	0.336448	1	3.1531	12	0.000193586
2	1	0	0	0	153.959	0.53186	0.532099	-0.00269366	1	3.1536	12	-1.43329e-06
2	1	0	0	0	158.359	0.487859	0.486904	-0.0657875	1	3.1534	12	-3.20322e-05
2	0	0	1	0	162.759	0.443858	0.443039	-0.0865225	1	3.15303	12	-3.83328e-05
2	0	0	1	0	167.159	0.399857	0.399831	-0.0935067	1	3.15262	12	-3.73868e-05
2	0	0	1	0	171.559	0.355856	0.354129	-0.0967411	1	3.15219	12	-3.42588e-05
2	0	0	0	0	175.959	0.311855	0.310423	-0.0956248	1	3.15176	12	-2.96842e-05
2	0	0	0	0	180.359	0.267855	0.270756	-0.085001	1	3.15136	12	-2.30145e-05
2	0	0	1	0	184.759	0.223854	0.219678	-0.0717105	1	3.15101	12	-1.57532e-05
2	0	0	1	0	189.159	0.179853	0.177944	-0.0582208	1	3.15072	12	-1.03601e-05
2	0	0	0	0	193.559	0.135852	0.13804	-0.0475103	1	3.15049	12	-6.55835e-06
2	0	0	0	0	197.959	0.0918514	0.091319	-0.0395234	1	3.15029	12	-3.60924e-06
2	0	0	0	0	202.359	0.0478506	0.0468051	-0.0341061	1	3.15013	12	-1.59634e-06
2	0	0	1	0	206.76	0.00384976	0.00341451	-0.0308083	1	3.14999	12	-1.05195e-07
2	0	0	1	1	211	0.0385504	0.0393789	-0.0162796	2	3.14989	12	-6.41074e-07
2	0	0	0	1	215.4	0.0825512	0.0848666	-0.00949716	2	3.14984	12	-8.05991e-07
2	0	0	0	1	219.8	0.126552	0.127612	-0.00466806	2	3.14981	12	-5.95701e-07
2	0	0	1	1	224.2	0.170553	0.168789	0.00233632	2	3.14981	12	3.94345e-07
2	1	0	1	1	228.6	0.214554	0.214897	0.010348	2	3.14984	12	2.22375e-06
2	1	0	0	1	233.001	0.258554	0.25984	0.0217372	2	3.14991	12	5.64819e-06
2	1	0	0	1	237.401	0.302555	0.302931	0.0408509	2	3.15005	12	1.2375e-05
2	1	0	0	1	241.801	0.346556	0.344472	0.0694095	2	3.1503	12	2.39096e-05
2	1	0	1	1	246.201	0.390557	0.38971	0.108307	2	3.15069	12	4.22084e-05
2	1	0	1	1	250.601	0.434558	0.435923	0.152991	2	3.15128	12	6.66924e-05
2	1	0	0	1	255.001	0.478559	0.476216	0.192422	2	3.15204	12	9.16346e-05
2	1	0	0	1	259.401	0.522559	0.523019	0.240457	2	3.153	12	0.000125764
2	1	0	1	1	263.801	0.566561	0.565186	0.339014	2	3.15423	12	0.000191606
2	1	0	1	1	268.231	0.610861	0.607099	1.00716	2	3.15675	11	0.000611449
2	1	0	1	1	272.631	0.654862	0.653912	3.95297	2	3.16653	11	0.0025849
2	1	0	0	1	277.031	0.698863	0.700583	10.1998	2	3.19652	11	0.00714581
2	1	0	0	1	281.461	0.743163	0.74345	19.5992	2	3.26152	10	0.014571
2	1	0	1	1	285.862	0.787164	0.784443	31.5034	2	3.37304	10	0.0247126
2	1	0	1	1	290.262	0.831165	0.830424	45.4799	2	3.54169	10	0.0377676
2	1	0	1	1	294.662	0.875166	0.874596	60.6867	2	3.77476	10	0.0530763
2	1	0	0	1	299.062	0.919167	0.919202	76.7106	2	4.07701	10	0.0705125
2	1	0	0	1	303.462	0.963168	0.959465	93.377	2	4.4512	10	0.089592
2	1	0	1	1	307.702	0.994468	0.996565	104.72	2	4.88016	10	0.104361
2	1	0	0	1	312.103	0.950467	0.95095	86.7414	2	5.30142	10	0.0824867
2	1	0	0	1	316.503	0.906466	0.906073	69.411	2	5.64439	10	0.0628914
2	1	0	1	1	320.903	0.862466	0.863703	53.653	2	5.91451	10	0.0463402
2	1	0	1	1	325.303	0.818465	0.820806	39.3584	2	6.11844	10	0.0323057
2	1	0	0	1	329.703	0.774464	0.776379	26.8534	2	6.26334	10	0.0208484
2	1	0	0	1	334.103	0.730463	0.728784	16.5224	2	6.3579	10	0.0120413
2	1	0	0	1	338.503	0.686462	0.686747	8.6762	2	6.41237	10	0.00595836
2	1	0	1	1	342.933	0.642162	0.64105	3.45892	2	6.43821	11	0.00221734
2	1	0	1	1	347.333	0.598161	0.59861	0.895899	2	6.44692	11	0.000536295
2	1	0	0	1	351.763	0.55386	0.554512	0.0882415	2	6.44866	12	4.8931e-05
2	0	0	0	1	356.163	0.509859	0.510612	-0.066278	2	6.4486	12	-3.38424e-05
2	0	0	0	1	360.563	0.465858	0.467505	-0.101315	2	6.44821	12	-4.73652e-05
2	0	0	1	1	364.964	0.421857	0.419538	-0.110814	2	6.44773	12	-4.64906e-05
2	0	0	1	1	369.364	0.377857	0.377829	-0.114134	2	6.44722	12	-4.31233e-05
2	0	0	0	1	373.764	0.333856	0.328946	-0.114566	2	6.44671	12	-3.7686e-05
2	0	0	0	1	378.164	0.289855	0.285979	-0.107634	2	6.44621	12	-3.07809e-05
2	0	0	1	1	382.564	0.245854	0.247324	-0.092482	2	6.44576	12	-2.2873e-05
2	0	0	1	1	386.964	0.201853	0.199114	-0.0763331	2	6.44538	12	-1.5199e-05
2	0	0	1	1	391.364	0.157853	0.156667	-0.0614414	2	6.44508	12	-9.62583e-06
2	0	0	0	1	395.764	0.113852	0.112059	-0.0497375	2	6.44483	12	-5.57352e-06
2	0	0	0	1	400.164	0.069851	0.0668573	-0.0416199	2	6.44462	12	-2.7826e-06
2	0	0	1	1	404.564	0.0258502	0.0229056	-0.0362082	2	6.44445	12	-8.29371e-07
2	0	0	1	0	408.805	0.01655	0.0141269	-0.0258019	3	6.44431	12	-3.64501e-07
2	0	0	0	0	413.205	0.0605508	0.0616024	-0.0169865	3	6.44422	12	-1.04641e-06
2	1	0	0	0	417.605	0.104552	0.104591	-0.0111857	3	6.44416	12	-1.16992e-06
2	0	0	1	0	422.005	0.148552	0.146087	-0.0057511	3	6.44413	12	-8.40161e-07
2	0	0	1	0	426.405	0.192553	0.189775	0.00156723	3	6.44412	12	2.97421e-07
2	0	0	1	0	430.805	0.236554	0.237048	0.0117007	3	6.44415	12	2.77363e-06
2	0	0	0	0	435.205	0.280555	0.27881	0.0272186	3	6.44423	12	7.58882e-06
2	1	0	0	0	439.605	0.324556	0.323976	0.0517094	3	6.44441	12	1.67526e-05
2	0	0	1	0	444.006	0.368557	0.368969	0.0859805	3	6.44471	12	3.17241e-05
2	1	0	1	0	448.406	0.412557	0.41157	0.133506	3	6.44519	12	5.49471e-05
2	1	0	1	0	452.806	0.456558	0.456492	0.172689	3	6.44588	12	7.88313e-05
2	1	0	0	0	457.206	0.500559	0.50035	0.211237	3	6.44674	12	0.000105692
2	1	0	0	0	461.606	0.54456	0.545173	0.264856	3	6.44779	12	0.000144392
2	1	0	1	0	466.006	0.588561	0.587286	0.492041	3	6.44932	12	0.000288969
2	1	0	1	0	470.436	0.632861	0.634409	1.96048	3	6.45399	11	0.00124374
2	1	0	0	0	474.836	0.676862	0.67438	6.18459	3	6.47078	11	0.00417076
2	1	0	0	0	479.266	0.721163	0.720499	13.5651	3	6.51345	10	0.00977366
2	1	0	0	0	483.666	0.765164	0.76529	23.659	3	6.59445	10	0.018106
2	1	0	1	0	488.066	0.809165	0.806071	35.9818	3	6.72494	10	0.0290039
2	1	0	1	0	492.466	0.853166	0.850831	50.1147	3	6.91377	10	0.0426392
2	1	0	0	0	496.867	0.897166	0.895077	65.4079	3	7.16784	10	0.0585451
2	1	0	0	0	501.267	0.941167	0.944785	81.4428	3	7.49082	10	0.0769459
2	1	0	0	0	505.667	0.985168	0.989624	97.7338	3	7.88523	10	0.0967197
2	1	0	0	0	509.907	0.972468	0.973303	92.7294	3	8.30646	10	0.0902538
2	1	0	0	0	514.307	0.928467	0.931049	75.2244	3	8.67539	10	0.0700376
2	1	0	0	0	518.707	0.884466	0.886374	59.2066	3	8.97078	10	0.0524792
2	1	0	1	0	523.108	0.840465	0.839105	44.5305	3	9.19853	10	0.0373658
2	1	0	1	0	527.508	0.796464	0.795135	31.4072	3	9.36483	10	0.024973
2	1	0	0	0	531.908	0.752464	0.751115	20.2838	3	9.47776	10	0.0152355
2	1	0	0	0	536.308	0.708463	0.708065	11.5368	3	9.54677	10	0.00816877
2	1	0	1	0	540.708	0.664462	0.662609	5.3246	3	9.58284	10	0.00352813
2	1	0	1	0	545.138	0.620161	0.616749	1.74551	3	9.59753	11	0.00107654
2	1	0	1	0	549.568	0.57586	0.577191	0.318127	3	9.60147	12	0.00018362
2	1	0	0	0	553.968	0.53186	0.534014	-0.0256705	3	9.6019	12	-1.37084e-05
2	1	0	0	0	558.368	0.487859	0.489096	-0.0945498	3	9.60159	12	-4.6244e-05
2	0	0	1	0	562.768	0.443858	0.444045	-0.112008	3	9.60112	12	-4.97364e-05
2	0	0	1	0	567.168	0.399857	0.399882	-0.118255	3	9.6006	12	-4.7288e-05
2	0	0	1	0	571.569	0.355856	0.35507	-0.120872	3	9.60006	12	-4.29179e-05
2	0	0	0	0	575.969	0.311855	0.314044	-0.118457	3	9.59953	12	-3.72007e-05
2	0	0	0	0	580.369	0.267855	0.266957	-0.105928	3	9.59902	12	-2.82783e-05
2	0	0	1	0	584.769	0.223854	0.221598	-0.0897042	3	9.59859	12	-1.98783e-05
2	0	0	1	0	589.169	0.179853	0.179185	-0.072726	3	9.59822	12	-1.30314e-05
2	0	0	0	0	593.569	0.135852	0.131016	-0.0588424	3	9.59793	12	-7.7093e-06
2	0	0	0	0	597.969	0.0918514	0.0911727	-0.0487584	3	9.59769	12	-4.44543e-06
2	0	0	0	0	602.369	0.0478506	0.0479284	-0.0418511	3	9.59749	12	-2.00586e-06
2	0	0	1	0	606.769	0.00384976	0.00543204	-0.037273	3	9.59731	12	-2.02469e-07
2	0	0	0	1	611.01	-0.038551	-0.0401045	-0.0345493	3	9.59716	12	1.38558e-06
2	0	0	0	1	614.313	-0.0716017	-0.0669369	-0.0185704	3	9.59705	12	1.24305e-06