File: Data_Lola/CoNiFeNx_400ºC_24h_13102022/Electrodes_19012023/2023_01_20_CoNiFeNx_400ºC_24h_electrode2_19012023_1_01_CV_C01.mpt
EC-Lab ASCII FILE
Nb header lines : 57

Cyclic Voltammetry

Run on channel : 1 (SN 21648)
User :
CE vs. WE compliance from -10 V to 10 V
Electrode connection : standard
Potential control : Ewe
Ewe ctrl range : min = -2.50 V, max = 2.50 V
Safety Limits :
	Do not start on E overload
Acquisition started on : 01/20/2023 13:04:21.533
Loaded Setting File :  NONE
Saved on :
	File : 2023_01_20_CoNiFeNx_400ºC_24h_electrode2_19012023_1_01_CV_C01.mpr
	Directory : C:\Users\grupogalan\Documents\EC-Lab\Data\Lole Jurado\
	Host : 169.254.104.159
Device : VSP (SN 1176)
Address : USB
EC-Lab for windows v11.46 (software)
Internet server v11.40 (firmware)
Command interpretor v11.40 (firmware)
Electrode material :
Initial state :
Electrolyte :
Comments :
Electrode surface area : 0.000 cm²
Characteristic mass : 0.001 g
Equivalent Weight : 0.000 g/eq.
Density : 0.000 g/cm3
Volume (V) : 0.001 cm³
Cycle Definition : Charge/Discharge alternance
Ei (V)              0.000
vs.                 Eoc
dE/dt               10.000
dE/dt unit          mV/s
E1 (V)              1.000
vs.                 Ref
Step percent        50
N                   10
E range min (V)     -2.500
E range max (V)     2.500
I Range             Auto
I Range min         Unset
I Range max         Unset
I Range init        Unset
Bandwidth           5
E2 (V)              0.000
vs.                 Ref
nc cycles           2
Reverse Scan        1
Ef (V)              0.000
vs.                 Eoc

mode	ox/red	error	control changes	counter inc.	time/s	control/V	Ewe/V	<I>/mA	cycle number	(Q-Qo)/C	I Range	P/W
2	1	0	1	0	0.000000000000000E+000	-0.143803	-0.146193	0.0511602	1	0.0000000E+000	13	-7.47927e-06
2	1	0	0	0	4.4852	-0.0989522	-0.097082	0.0023917	1	8.5578e-06	12	-2.32192e-07
2	0	0	0	0	8.9852	-0.0539513	-0.0544923	0.00396189	1	2.43651e-05	12	-2.15893e-07
2	1	0	1	0	13.4854	-0.00895048	-0.00817294	0.00496869	1	4.63613e-05	12	-4.06088e-08
2	0	0	1	0	17.9854	0.0360504	0.0336605	0.00585125	1	7.42754e-05	12	1.96956e-07
2	0	0	0	0	22.4856	0.0810512	0.0840255	0.00859432	1	0.000109496	12	7.22142e-07
2	0	0	0	0	26.9856	0.126052	0.125471	0.0122033	1	0.000156941	12	1.53116e-06
2	1	0	0	0	31.4856	0.171053	0.173571	0.0220619	1	0.000237362	12	3.82931e-06
2	1	0	1	0	35.9858	0.216054	0.216194	0.028091	1	0.000352582	12	6.07308e-06
2	1	0	1	0	40.4858	0.261055	0.264369	0.0371658	1	0.00050112	12	9.82549e-06
2	1	0	0	0	44.986	0.306055	0.308044	0.0515338	1	0.000702129	12	1.58747e-05
2	1	0	0	0	49.486	0.351056	0.349827	0.0797095	1	0.000996871	12	2.78845e-05
2	1	0	1	0	53.9862	0.396057	0.397929	0.12388	1	0.00145447	12	4.92954e-05
2	1	0	1	0	58.4862	0.441058	0.436479	0.194623	1	0.00216821	12	8.49491e-05
2	1	0	1	0	62.9862	0.486059	0.490989	0.299766	1	0.00328778	12	0.000147182
2	1	0	0	0	67.4864	0.53106	0.529897	0.418112	1	0.00491021	12	0.000221556
2	1	0	0	0	71.9864	0.57606	0.575424	0.58119	1	0.00713292	12	0.000334431
2	1	0	1	0	76.5166	0.621361	0.619906	1.37212	1	0.0110127	11	0.000850587
2	1	0	1	0	81.0166	0.666362	0.663643	4.9189	1	0.0238163	11	0.0032644
2	1	0	0	0	85.5468	0.711663	0.712565	12.2487	1	0.0614125	10	0.00872799
2	1	0	0	0	90.0468	0.756664	0.754971	22.5485	1	0.138701	10	0.0170234
2	1	0	0	0	94.5468	0.801665	0.802786	35.2995	1	0.267977	10	0.0283379
2	1	0	1	0	99.047	0.846665	0.845572	50.083	1	0.459621	10	0.0423488
2	1	0	1	0	103.547	0.891666	0.892013	66.4886	1	0.721139	10	0.0593087
2	1	0	0	0	108.047	0.936667	0.939096	83.3555	1	1.05816	10	0.0782788
2	1	0	0	0	112.547	0.981668	0.984013	100.426	1	1.47191	10	0.0988204
2	1	0	1	0	116.938	0.974468	0.974672	94.8716	1	1.92145	10	0.0924687
2	1	0	1	0	121.438	0.929467	0.929022	75.4915	1	2.30489	10	0.0701333
2	1	0	0	0	125.938	0.884466	0.883946	58.3944	1	2.60582	10	0.0516175
2	1	0	0	0	130.438	0.839465	0.84118	42.7675	1	2.83272	10	0.0359752
2	1	0	1	0	134.938	0.794464	0.792851	29.4725	1	2.9944	10	0.0233673
2	1	0	1	0	139.438	0.749464	0.748292	18.5474	1	3.10141	10	0.0138789
2	1	0	1	0	143.938	0.704463	0.706805	10.1799	1	3.16502	10	0.00719523
2	1	0	0	0	148.438	0.659462	0.657418	4.46125	1	3.19693	10	0.0029329
2	1	0	0	0	152.968	0.614161	0.616738	1.31945	1	3.20904	11	0.000813753
2	1	0	1	0	157.469	0.56916	0.56877	0.21428	1	3.21192	11	0.000121876
2	0	0	1	0	161.999	0.523859	0.524573	-0.0155272	1	3.2122	12	-8.14513e-06
2	0	0	0	0	166.499	0.478859	0.478771	-0.0591472	1	3.212	12	-2.8318e-05
2	0	0	0	0	170.999	0.433858	0.436514	-0.0733343	1	3.21169	12	-3.20115e-05
2	0	0	1	0	175.499	0.388857	0.389655	-0.0765899	1	3.21134	12	-2.98436e-05
2	0	0	1	0	179.999	0.343856	0.342521	-0.0769793	1	3.21098	12	-2.6367e-05
2	0	0	1	0	184.499	0.298855	0.29607	-0.0734864	1	3.21063	12	-2.17572e-05
2	0	0	0	0	188.999	0.253854	0.253572	-0.0620445	1	3.21032	12	-1.57328e-05
2	0	0	0	0	193.499	0.208854	0.208779	-0.0495906	1	3.21006	12	-1.03535e-05
2	0	0	1	0	197.999	0.163853	0.163019	-0.0388017	1	3.20986	12	-6.3254e-06
2	1	0	1	0	202.499	0.118852	0.117481	-0.0308385	1	3.2097	12	-3.62294e-06
2	0	0	1	0	206.999	0.0738511	0.0738147	-0.0253009	1	3.20957	12	-1.86758e-06
2	0	0	0	0	211.5	0.0288502	0.0289401	-0.0215085	1	3.20946	12	-6.2246e-07
2	1	0	1	1	215.84	0.01455	0.0130747	-0.0156392	2	3.20938	12	-2.04478e-07
2	0	0	1	1	220.34	0.0595508	0.0572672	-0.00991871	2	3.20933	12	-5.68017e-07
2	0	0	0	1	224.84	0.104552	0.107849	-0.00519786	2	3.2093	12	-5.60582e-07
2	1	0	0	1	229.34	0.149552	0.143332	-0.00020403	2	3.20929	12	-2.92441e-08
2	0	0	1	1	233.841	0.194553	0.193896	0.00524832	2	3.2093	12	1.01763e-06
2	1	0	1	1	238.341	0.239554	0.238523	0.0145298	2	3.20935	12	3.46569e-06
2	1	0	0	1	242.841	0.284555	0.285267	0.0264679	2	3.20944	12	7.55043e-06
2	1	0	0	1	247.341	0.329556	0.329838	0.047153	2	3.20961	12	1.55529e-05
2	1	0	0	1	251.841	0.374557	0.372409	0.0774253	2	3.20989	12	2.88339e-05
2	1	0	1	1	256.341	0.419557	0.422051	0.119127	2	3.21034	12	5.02776e-05
2	1	0	1	1	260.841	0.464558	0.462601	0.159339	2	3.21097	12	7.37102e-05
2	1	0	0	1	265.341	0.509559	0.510644	0.2017	2	3.21179	12	0.000102997
2	1	0	0	1	269.841	0.55456	0.554995	0.260038	2	3.21283	12	0.00014432
2	1	0	1	1	274.341	0.59956	0.597745	0.544181	2	3.21444	12	0.000325282
2	1	0	1	1	278.871	0.644862	0.644095	2.16061	2	3.21976	11	0.00139164
2	1	0	1	1	283.371	0.689862	0.689888	6.56205	2	3.23818	11	0.00452708
2	1	0	0	1	287.902	0.735163	0.734974	14.3581	2	3.28442	10	0.0105528
2	1	0	0	1	292.402	0.780164	0.775089	25.0814	2	3.37213	10	0.0194403
2	1	0	1	1	296.902	0.825165	0.83021	38.4232	2	3.51424	10	0.0318993
2	1	0	1	1	301.402	0.870166	0.871108	53.8982	2	3.72142	10	0.0469511
2	1	0	1	1	305.902	0.915166	0.914202	70.6669	2	4.00152	10	0.0646038
2	1	0	0	1	310.402	0.960168	0.958077	88.1658	2	4.35907	10	0.0844696
2	1	0	1	1	314.743	0.996468	0.99732	102.62	2	4.78017	10	0.102345
2	1	0	1	1	319.243	0.951467	0.949088	82.7597	2	5.19615	10	0.0785463
2	1	0	0	1	323.743	0.906466	0.906994	64.6986	2	5.52751	10	0.0586812
2	1	0	0	1	328.243	0.861466	0.862844	48.3007	2	5.78104	10	0.041676
2	1	0	0	1	332.743	0.816465	0.814372	33.9878	2	5.96531	10	0.0276787
2	1	0	1	1	337.243	0.771464	0.772107	21.9773	2	6.09036	10	0.0169688
2	1	0	1	1	341.743	0.726463	0.726859	12.565	2	6.16696	10	0.00913301
2	1	0	0	1	346.243	0.681462	0.682434	6.00742	2	6.20764	10	0.00409967
2	1	0	0	1	350.773	0.636162	0.634688	2.14383	2	6.22509	11	0.00136066
2	1	0	1	1	355.273	0.591161	0.590284	0.498292	2	6.23037	11	0.000294134
2	1	0	1	1	359.803	0.54586	0.54488	0.0396293	2	6.2313	12	2.15932e-05
2	0	0	1	1	364.303	0.500859	0.500048	-0.0526362	2	6.23121	12	-2.63207e-05
2	1	0	0	1	368.804	0.455858	0.45491	-0.0761636	2	6.2309	12	-3.46476e-05
2	0	0	0	1	373.304	0.410857	0.410682	-0.0837211	2	6.23052	12	-3.43828e-05
2	0	0	1	1	377.804	0.365856	0.364493	-0.0866855	2	6.23012	12	-3.15963e-05
2	0	0	1	1	382.304	0.320856	0.321066	-0.0866601	2	6.22972	12	-2.78236e-05
2	0	0	0	1	386.804	0.275855	0.277392	-0.0781949	2	6.22935	12	-2.16906e-05
2	0	0	0	1	391.304	0.230854	0.227416	-0.0649591	2	6.22902	12	-1.47727e-05
2	0	0	0	1	395.804	0.185853	0.185578	-0.0517837	2	6.22875	12	-9.60993e-06
2	0	0	1	1	400.304	0.140852	0.139985	-0.0428882	2	6.22854	12	-6.0037e-06
2	0	0	1	1	404.804	0.0958515	0.0930555	-0.0351905	2	6.22836	12	-3.27467e-06
2	0	0	0	1	409.304	0.0508506	0.0527028	-0.0303698	2	6.22821	12	-1.60057e-06
2	0	0	0	1	413.804	0.0058498	0.00474256	-0.0267698	2	6.22808	12	-1.26957e-07
2	0	0	1	0	418.145	0.0375504	0.037547	-0.0143121	3	6.228	12	-5.37375e-07
2	1	0	0	0	422.645	0.0825512	0.0876118	-0.00968571	3	6.22795	12	-8.48582e-07
2	1	0	0	0	427.145	0.127552	0.125815	-0.00520301	3	6.22792	12	-6.54619e-07
2	0	0	0	0	431.645	0.172553	0.172962	-0.000661828	3	6.2279	12	-1.14471e-07
2	1	0	1	0	436.145	0.217554	0.214395	0.00511991	3	6.22792	12	1.09768e-06
2	0	0	1	0	440.645	0.262555	0.25985	0.0139997	3	6.22796	12	3.63782e-06
2	0	0	0	0	445.146	0.307555	0.306681	0.0293589	3	6.22806	12	9.0038e-06
2	1	0	0	0	449.646	0.352556	0.353969	0.0515945	3	6.22825	12	1.82628e-05
2	1	0	1	0	454.146	0.397557	0.396024	0.087107	3	6.22856	12	3.44965e-05
2	1	0	1	0	458.646	0.442558	0.441075	0.128029	3	6.22906	12	5.64703e-05
2	1	0	1	0	463.146	0.487559	0.487516	0.165311	3	6.22972	12	8.05918e-05
2	1	0	0	0	467.646	0.53256	0.534136	0.206303	3	6.23057	12	0.000110194
2	1	0	0	0	472.146	0.57756	0.577426	0.307613	3	6.23168	12	0.000177624
2	1	0	1	0	476.676	0.622861	0.62411	0.982905	3	6.23419	11	0.000613441
2	1	0	1	0	481.176	0.667862	0.667843	3.51942	3	6.24339	11	0.00235042
2	1	0	0	0	485.676	0.712863	0.713465	9.0735	3	6.27053	11	0.00647363
2	1	0	0	0	490.206	0.758164	0.75755	17.8705	3	6.33047	10	0.0135378
2	1	0	0	0	494.706	0.803165	0.805257	29.4673	3	6.43601	10	0.0237287
2	1	0	1	0	499.207	0.848165	0.851954	43.5112	3	6.59935	10	0.0370695
2	1	0	1	0	503.707	0.893166	0.891436	59.471	3	6.83086	10	0.0530146
2	1	0	0	0	508.207	0.938167	0.942663	76.5732	3	7.1372	10	0.0721828
2	1	0	0	0	512.707	0.983168	0.982902	94.2033	3	7.52117	10	0.0925927
2	1	0	1	0	517.047	0.973468	0.974127	89.2411	3	7.93796	10	0.0869321
2	1	0	1	0	521.547	0.928467	0.928702	70.736	3	8.29726	10	0.0656926
2	1	0	0	0	526.048	0.883466	0.883299	53.9717	3	8.57707	10	0.0476732
2	1	0	0	0	530.548	0.838465	0.83532	39.0317	3	8.78533	10	0.0326039
2	1	0	1	0	535.048	0.793464	0.794979	26.1055	3	8.93111	10	0.0207533
2	1	0	1	0	539.548	0.748464	0.747733	15.7083	3	9.02416	10	0.0117457
2	1	0	0	0	544.048	0.703463	0.701831	8.10725	3	9.0766	10	0.00568992
2	1	0	0	0	548.578	0.658162	0.660202	3.29681	3	9.10135	11	0.00217656
2	1	0	0	0	553.078	0.613161	0.610051	0.961391	3	9.11014	11	0.000586498
2	1	0	1	0	557.608	0.56786	0.56614	0.153863	3	9.11226	12	8.71078e-05
2	1	0	1	0	562.108	0.522859	0.52341	-0.0284903	3	9.11242	12	-1.49121e-05
2	1	0	0	0	566.608	0.477859	0.477002	-0.0691756	3	9.11217	12	-3.29969e-05
2	0	0	0	0	571.108	0.432858	0.431145	-0.0806628	3	9.11182	12	-3.47774e-05
2	0	0	1	0	575.609	0.387857	0.389567	-0.0864488	3	9.11144	12	-3.36776e-05
2	0	0	1	0	580.109	0.342856	0.344066	-0.0876589	3	9.11103	12	-3.01604e-05
2	1	0	1	0	584.609	0.297855	0.297691	-0.0831093	3	9.11064	12	-2.47409e-05
2	0	0	0	0	589.109	0.252854	0.2551	-0.0727904	3	9.11028	12	-1.85689e-05
2	0	0	0	0	593.609	0.207854	0.206277	-0.0602684	3	9.10998	12	-1.2432e-05
2	0	0	1	0	598.109	0.162853	0.165137	-0.049218	3	9.10974	12	-8.12771e-06
2	1	0	1	0	602.609	0.117852	0.116983	-0.040662	3	9.10953	12	-4.75675e-06
2	0	0	1	0	607.109	0.0728501	0.0729128	-0.0343199	3	9.10936	12	-2.50236e-06
2	1	0	0	0	611.609	0.0278502	0.0256837	-0.0304104	3	9.10922	12	-7.81051e-07
2	0	0	0	1	615.95	-0.0155506	-0.0152153	-0.0282898	3	9.10909	12	4.30437e-07
2	0	0	1	1	620.45	-0.0605515	-0.0604664	-0.0277346	3	9.10896	12	1.67701e-06
2	0	0	1	1	624.95	-0.105552	-0.105892	-0.0306017	3	9.10883	12	3.24046e-06
2	0	0	1	1	628.788	-0.144003	-0.147205	-0.036312	3	9.1087	12	5.34531e-06