File: Data/2022_01_11 FeNx Ti electrode set1_04_CP_C05.mpt
EC-Lab ASCII FILE
Nb header lines : 53

Chronopotentiometry

Run on channel : 5 (SN 30436)
User :
CE vs. WE compliance from -10 V to 10 V
Electrode connection : standard
Potential control : Ewe
Ewe ctrl range : min = -2,50 V, max = 2,50 V
Safety Limits :
	Do not start on E overload
Acquisition started on : 01/11/2023 11:36:25.784
Loaded Setting File :  C:\Users\grupogalan\Documents\EC-Lab\Data\Scott\2022_01_05 CoNx Ti electrode1.mps
Saved on :
	File : 2022_01_11 FeNx Ti electrode set1_04_CP_C05.mpr
	Directory : C:\Users\grupogalan\Documents\EC-Lab\Data\Scott\
	Host : 169.254.104.159
Device : VSP (SN 1176)
Address : USB
EC-Lab for windows v11.46 (software)
Internet server v11.40 (firmware)
Command interpretor v11.40 (firmware)
Electrode material :
Initial state :
Electrolyte :
Comments :
Electrode surface area : 0,000 cm²
Characteristic mass : 0,001 g
Equivalent Weight : 0,000 g/eq.
Density : 0,000 g/cm3
Volume (V) : 0,001 cm³
Cycle Definition : Charge/Discharge alternance
Ns                  0                   1                   2                   3                   4                   5                   6                   7                   8                   9                   10                  11                  12
Is                  10,000              18,000              32,000              56,000              100,000             178,000             316,000             562,000             1,000               1,778               3,162               5,623               10,000
unit Is             µA                  µA                  µA                  µA                  µA                  µA                  µA                  µA                  mA                  mA                  mA                  mA                  mA
vs.                 <None>              <None>              <None>              <None>              <None>              <None>              <None>              <None>              <None>              <None>              <None>              <None>              <None>
ts (h:m:s)          0:03:0,0000         0:03:0,0000         0:03:0,0000         0:03:0,0000         0:03:0,0000         0:03:0,0000         0:03:0,0000         0:03:0,0000         0:03:0,0000         0:03:0,0000         0:03:0,0000         0:03:0,0000         0:03:0,0000
EM (V)              pass                pass                pass                pass                pass                pass                pass                pass                pass                pass                pass                pass                pass
dQM                 500,000             900,000             1,600               2,800               5,000               8,900               15,800              28,100              50,000              88,900              158,100             281,150             500,000
unit dQM            nA.h                nA.h                µA.h                µA.h                µA.h                µA.h                µA.h                µA.h                µA.h                µA.h                µA.h                µA.h                µA.h
record              <Ewe>               <Ewe>               <Ewe>               <Ewe>               <Ewe>               <Ewe>               <Ewe>               <Ewe>               <Ewe>               <Ewe>               <Ewe>               <Ewe>               <Ewe>
dEs (mV)            0,00                0,00                0,00                0,00                0,00                0,00                0,00                0,00                0,00                0,00                0,00                0,00                0,00
dts (s)             1,0000              1,0000              1,0000              1,0000              1,0000              1,0000              1,0000              1,0000              1,0000              1,0000              1,0000              1,0000              1,0000
E range min (V)     -2,500              -2,500              -2,500              -2,500              -2,500              -2,500              -2,500              -2,500              -2,500              -2,500              -2,500              -2,500              -2,500
E range max (V)     2,500               2,500               2,500               2,500               2,500               2,500               2,500               2,500               2,500               2,500               2,500               2,500               2,500
I Range             10 mA               10 mA               10 mA               10 mA               10 mA               10 mA               10 mA               10 mA               10 mA               10 mA               10 mA               10 mA               10 mA
Bandwidth           5                   5                   5                   5                   5                   5                   5                   5                   5                   5                   5                   5                   5
goto Ns'            0                   0                   0                   0                   0                   0                   0                   0                   0                   0                   0                   0                   0
nc cycles           0                   0                   0                   0                   0                   0                   0                   0                   0                   0                   0                   0                   0

mode	ox/red	error	control changes	Ns changes	counter inc.	Ns	time/s	control/mA	<Ewe>/V	I/mA	dQ/C	(Q-Qo)/C	half cycle	Q charge/discharge/mA.h	I Range	Energy charge/W.h	Energy discharge/W.h	Capacitance charge/µF	Capacitance discharge/µF	Q discharge/mA.h	Q charge/mA.h	Capacity/mA.h	Efficiency/%	cycle number	P/W
1	1	0	0	0	0	0	7,159181878012168E+002	1,0000001E-002	8,0845438E-002	9,9302754E-003	9,1525662E-006	9,1525662E-006	0	2,542379509880751E-006	11	2,055397848959971E-010	0,000000000000000E+000	0,000000000000000E+000	0,000000000000000E+000	0,000000000000000E+000	2,542379509880751E-006	2,542379509880751E-006	0,0000000E+000	0,000000000000000E+000	8,0281745E-007
1	1	0	0	0	0	0	7,999181856791984E+002	1,0000001E-002	5,3826666E-001	9,4848787E-003	8,0696796E-004	8,0696796E-004	0	2,241577668529418E-004	11	9,976189878919732E-008	0,000000000000000E+000	1,764168204383892E+003	0,000000000000000E+000	0,000000000000000E+000	2,241577668529418E-004	2,241577668529418E-004	0,0000000E+000	0,000000000000000E+000	5,1053939E-006
1	1	0	0	0	0	0	8,839181835571799E+002	1,0000001E-002	5,0637156E-001	9,2303669E-003	1,5989154E-003	1,5989154E-003	0	4,441431762340168E-004	11	2,157725833683361E-007	0,000000000000000E+000	3,757502508441664E+003	0,000000000000000E+000	0,000000000000000E+000	4,441431762340168E-004	4,441431762340168E-004	0,0000000E+000	0,000000000000000E+000	4,6739951E-006
1	1	0	1	0	0	1	9,669705814590998E+002	1,8000001E-002	5,3762388E-001	1,5974924E-002	1,1991976E-003	2,9020743E-003	0	8,061317364788718E-004	11	4,132706031735153E-007	0,000000000000000E+000	6,353352121927004E+003	0,000000000000000E+000	0,000000000000000E+000	8,061317364788718E-004	8,061317364788718E-004	0,0000000E+000	0,000000000000000E+000	8,5885004E-006
1	1	0	1	0	0	1	1,050970579337081E+003	1,8000001E-002	4,8243758E-001	1,6356692E-002	2,6012701E-003	4,3041469E-003	0	1,195596349943015E-003	11	6,122037186903951E-007	0,000000000000000E+000	1,071770704671012E+004	0,000000000000000E+000	0,000000000000000E+000	1,195596349943015E-003	1,195596349943015E-003	0,0000000E+000	0,000000000000000E+000	7,8910825E-006
1	1	0	0	0	0	2	1,133970777240320E+003	3,2000002E-002	5,5315232E-001	3,0863851E-002	1,8213392E-003	6,5269805E-003	0	1,813050152526961E-003	11	9,403223120823757E-007	0,000000000000000E+000	1,381936376911922E+004	0,000000000000000E+000	0,000000000000000E+000	1,813050152526961E-003	1,813050152526961E-003	0,0000000E+000	0,000000000000000E+000	1,7072411E-005
1	1	0	0	0	0	2	1,217970775118301E+003	3,2000002E-002	5,4260594E-001	3,0863851E-002	4,4134534E-003	9,1190943E-003	0	2,533081763734420E-003	11	1,335860848284722E-006	0,000000000000000E+000	1,974853744432320E+004	0,000000000000000E+000	0,000000000000000E+000	2,533081763734420E-003	2,533081763734420E-003	0,0000000E+000	0,000000000000000E+000	1,6746910E-005
1	1	0	1	0	0	3	1,300970973021540E+003	5,6000002E-002	6,1114264E-001	5,5233337E-002	2,5351418E-003	1,2795831E-002	0	3,554397521333562E-003	11	1,931723407602837E-006	0,000000000000000E+000	2,412954584742952E+004	0,000000000000000E+000	0,000000000000000E+000	3,554397521333562E-003	3,554397521333562E-003	0,0000000E+000	0,000000000000000E+000	3,3755448E-005
1	1	0	1	0	0	3	1,384970970899521E+003	5,6000002E-002	6,1449581E-001	5,4787945E-002	7,1644303E-003	1,7425120E-002	0	4,840311076905992E-003	11	2,720729789870336E-006	0,000000000000000E+000	3,265268785305938E+004	0,000000000000000E+000	0,000000000000000E+000	4,840311076905992E-003	4,840311076905992E-003	0,0000000E+000	0,000000000000000E+000	3,3666962E-005
1	1	0	0	0	0	4	1,467971168802760E+003	1,0000000E-001	6,4893347E-001	9,8500304E-002	3,2582597E-003	2,3440907E-002	0	6,511362993882762E-003	11	3,777656020003596E-006	0,000000000000000E+000	4,126280527431933E+004	0,000000000000000E+000	0,000000000000000E+000	6,511362993882762E-003	6,511362993882762E-003	0,0000000E+000	0,000000000000000E+000	6,3920146E-005
1	1	0	0	0	0	4	1,551971166680742E+003	1,0000000E-001	6,5033972E-001	9,8882072E-002	1,1552514E-002	3,1735159E-002	0	8,815322071313858E-003	11	5,275098452898327E-006	0,000000000000000E+000	5,572515662467506E+004	0,000000000000000E+000	0,000000000000000E+000	8,815322071313858E-003	8,815322071313858E-003	0,0000000E+000	0,000000000000000E+000	6,4306936E-005
1	1	0	1	0	0	5	1,634971364583980E+003	1,7800000E-001	6,7960507E-001	1,7733526E-001	3,5441637E-003	4,1501909E-002	0	1,152830819288890E-002	11	7,068674405807575E-006	0,000000000000000E+000	6,931313660218685E+004	0,000000000000000E+000	0,000000000000000E+000	1,152830819288890E-002	1,152830819288890E-002	0,0000000E+000	0,000000000000000E+000	1,2051794E-004
1	1	0	1	0	0	5	1,718971362461962E+003	1,7800000E-001	6,8137914E-001	1,7708077E-001	1,8430317E-002	5,6388061E-002	0	1,566335041489866E-002	11	9,883945513505188E-006	0,000000000000000E+000	9,389657775403651E+004	0,000000000000000E+000	0,000000000000000E+000	1,566335041489866E-002	1,566335041489866E-002	0,0000000E+000	0,000000000000000E+000	1,2065914E-004
1	1	0	0	0	0	6	1,801971560365200E+003	3,1600001E-001	7,0972425E-001	3,1470788E-001	2,2037781E-003	7,2057284E-002	0	2,001591233743562E-002	11	1,286452332238872E-005	0,000000000000000E+000	1,145805531428979E+005	0,000000000000000E+000	0,000000000000000E+000	2,001591233743562E-002	2,001591233743562E-002	0,0000000E+000	0,000000000000000E+000	2,2335580E-004
1	1	0	0	0	0	6	1,885971558243182E+003	3,1600001E-001	7,0692581E-001	3,1477150E-001	2,8641546E-002	9,8495051E-002	0	2,735973646243413E-002	11	1,806833133845455E-005	0,000000000000000E+000	1,573201337105144E+005	0,000000000000000E+000	0,000000000000000E+000	2,735973646243413E-002	2,735973646243413E-002	0,0000000E+000	0,000000000000000E+000	2,2252010E-004
1	1	0	0	0	0	6	1,969971556121163E+003	3,1600001E-001	7,0750433E-001	3,1445339E-001	5,5079162E-002	1,2493267E-001	0	3,470351919531822E-002	11	2,326598419091382E-005	0,000000000000000E+000	1,993631077751543E+005	0,000000000000000E+000	0,000000000000000E+000	3,470351919531822E-002	3,470351919531822E-002	0,0000000E+000	0,000000000000000E+000	2,2247715E-004
1	1	0	1	0	0	7	2,052971754024402E+003	5,6200004E-001	7,3656911E-001	5,6120235E-001	4,3745261E-002	1,7025171E-001	0	4,729214227861828E-002	11	3,253267657670238E-005	0,000000000000000E+000	2,596394099271554E+005	0,000000000000000E+000	0,000000000000000E+000	4,729214227861828E-002	4,729214227861828E-002	0,0000000E+000	0,000000000000000E+000	4,1336432E-004
1	1	0	1	0	0	7	2,136971751902383E+003	5,6200004E-001	7,3587579E-001	5,6088424E-001	9,0855978E-002	2,1736243E-001	0	6,037845379776425E-002	11	4,216302425423283E-005	0,000000000000000E+000	3,318356578673664E+005	0,000000000000000E+000	0,000000000000000E+000	6,037845379776425E-002	6,037845379776425E-002	0,0000000E+000	0,000000000000000E+000	4,1274112E-004
1	1	0	0	0	0	8	2,219971949805622E+003	1,0000000E+000	7,7019513E-001	9,9940771E-001	6,4946271E-002	2,9240385E-001	0	8,122329082753924E-002	11	5,811780634302605E-005	0,000000000000000E+000	4,241734526585360E+005	0,000000000000000E+000	0,000000000000000E+000	8,122329082753924E-002	8,122329082753924E-002	0,0000000E+000	0,000000000000000E+000	7,6973892E-004
1	1	0	0	0	0	8	2,303971947683604E+003	1,0000000E+000	7,7212298E-001	9,9915314E-001	1,4887479E-001	3,7633237E-001	0	1,045367701186074E-001	11	7,608638221521356E-005	0,000000000000000E+000	5,444012539368754E+005	0,000000000000000E+000	0,000000000000000E+000	1,045367701186074E-001	1,045367701186074E-001	0,0000000E+000	0,000000000000000E+000	7,7146909E-004
1	1	0	1	0	0	9	2,386972145586842E+003	1,7780000E+000	8,1283587E-001	1,7763042E+000	9,2387147E-002	4,9969313E-001	0	1,388036459684372E-001	11	1,035827280480448E-004	0,000000000000000E+000	6,826497818294988E+005	0,000000000000000E+000	0,000000000000000E+000	1,388036459684372E-001	1,388036459684372E-001	0,0000000E+000	0,000000000000000E+000	1,4438438E-003
1	1	0	1	0	0	9	2,470972143464824E+003	1,7780000E+000	8,1900406E-001	1,7763680E+000	2,4162339E-001	6,4892936E-001	0	1,802581548690796E-001	11	1,374102210992679E-004	0,000000000000000E+000	8,791190937971440E+005	0,000000000000000E+000	0,000000000000000E+000	1,802581548690796E-001	1,802581548690796E-001	0,0000000E+000	0,000000000000000E+000	1,4548526E-003
1	1	0	0	0	0	10	2,553972341368062E+003	3,1619999E+000	8,7089211E-001	3,1607838E+000	1,2326324E-001	8,5036355E-001	0	2,362120979362064E-001	11	1,849366826541953E-004	0,000000000000000E+000	1,076345944226628E+006	0,000000000000000E+000	0,000000000000000E+000	2,362120979362064E-001	2,362120979362064E-001	0,0000000E+000	0,000000000000000E+000	2,7527018E-003
1	1	0	0	0	0	10	2,637972339246044E+003	3,1619999E+000	8,7935728E-001	3,1616743E+000	3,8875237E-001	1,1158527E+000	0	3,099590871069167E-001	11	2,495291927838811E-004	0,000000000000000E+000	1,397415324219818E+006	0,000000000000000E+000	0,000000000000000E+000	3,099590871069167E-001	3,099590871069167E-001	0,0000000E+000	0,000000000000000E+000	2,7802412E-003
1	1	0	1	0	0	11	2,720972537149282E+003	5,6230001E+000	9,4506955E-001	5,6212111E+000	1,4614291E-001	1,4421474E+000	0	4,005964928203159E-001	11	3,320594705501952E-004	0,000000000000000E+000	1,668719160095936E+006	0,000000000000000E+000	0,000000000000000E+000	4,005964928203159E-001	4,005964928203159E-001	0,0000000E+000	0,000000000000000E+000	5,3124353E-003
1	1	0	1	0	0	11	2,804972535027264E+003	5,6230001E+000	9,5178586E-001	5,6204472E+000	6,1830407E-001	1,9143085E+000	0	5,317523744371202E-001	11	4,565978271121139E-004	0,000000000000000E+000	2,197978696349756E+006	0,000000000000000E+000	0,000000000000000E+000	5,317523744371202E-001	5,317523744371202E-001	0,0000000E+000	0,000000000000000E+000	5,3494619E-003
1	1	0	0	0	0	12	2,887972732930502E+003	1,0000000E+001	1,0084947E+000	9,9982376E+000	1,2998159E-001	2,4377582E+000	0	6,771550575892130E-001	11	5,975915015612269E-004	0,000000000000000E+000	2,627887669337489E+006	0,000000000000000E+000	0,000000000000000E+000	6,771550575892130E-001	6,771550575892130E-001	0,0000000E+000	0,000000000000000E+000	1,0083170E-002
1	1	0	0	0	0	12	2,971972730808484E+003	1,0000000E+001	1,0122759E+000	9,9981098E+000	9,6987146E-001	3,2776480E+000	0	9,104577700297037E-001	11	8,334825476840317E-004	0,000000000000000E+000	3,518939852795301E+006	0,000000000000000E+000	0,000000000000000E+000	9,104577700297037E-001	9,104577700297037E-001	0,0000000E+000	0,000000000000000E+000	1,0120846E-002
1	1	0	0	0	0	12	3,054972928711722E+003	1,0000000E+001	1,0201654E+000	9,9997644E+000	1,7997663E+000	4,1075430E+000	0	1,140984164343940E+000	11	1,067975662111023E-003	0,000000000000000E+000	4,372889824499061E+006	0,000000000000000E+000	0,000000000000000E+000	1,140984164343940E+000	1,140984164343940E+000	0,0000000E+000	0,000000000000000E+000	1,0201414E-002