File: Data/2022_01_04 NiNx Ti electrode1_04_CP_C05.mpt
EC-Lab ASCII FILE
Nb header lines : 54

Chronopotentiometry

Run on channel : 5 (SN 30436)
User :
CE vs. WE compliance from -10 V to 10 V
Electrode connection : standard
Potential control : Ewe
Ewe ctrl range : min = -2.50 V, max = 2.50 V
Safety Limits :
	Do not start on E overload
Acquisition started on : 01/04/2023 12:17:22.870
Technique started on : 01/04/2023 12:29:22.413
Loaded Setting File :  NONE
Saved on :
	File : 2022_01_04 NiNx Ti electrode1_04_CP_C05.mpr
	Directory : C:\Users\grupogalan\Documents\EC-Lab\Data\Scott\
	Host : 169.254.104.159
Device : VSP (SN 1176)
Address : USB
EC-Lab for windows v11.46 (software)
Internet server v11.40 (firmware)
Command interpretor v11.40 (firmware)
Electrode material :
Initial state :
Electrolyte :
Comments :
Electrode surface area : 0.000 cm²
Characteristic mass : 0.001 g
Equivalent Weight : 0.000 g/eq.
Density : 0.000 g/cm3
Volume (V) : 0.001 cm³
Cycle Definition : Charge/Discharge alternance
Ns                  0                   1                   2                   3                   4                   5                   6                   7                   8                   9                   10                  11                  12
Is                  10.000              18.000              32.000              56.000              100.000             178.000             316.000             562.000             1.000               1.778               3.162               5.623               10.000
unit Is             µA                  µA                  µA                  µA                  µA                  µA                  µA                  µA                  mA                  mA                  mA                  mA                  mA
vs.                 <None>              <None>              <None>              <None>              <None>              <None>              <None>              <None>              <None>              <None>              <None>              <None>              <None>
ts (h:m:s)          0:03:0.0000         0:03:0.0000         0:03:0.0000         0:03:0.0000         0:03:0.0000         0:03:0.0000         0:03:0.0000         0:03:0.0000         0:03:0.0000         0:03:0.0000         0:03:0.0000         0:03:0.0000         0:03:0.0000
EM (V)              pass                pass                pass                pass                pass                pass                pass                pass                pass                pass                pass                pass                pass
dQM                 500.000             900.000             1.600               2.800               5.000               8.900               15.800              28.100              50.000              88.900              158.100             281.150             500.000
unit dQM            nA.h                nA.h                µA.h                µA.h                µA.h                µA.h                µA.h                µA.h                µA.h                µA.h                µA.h                µA.h                µA.h
record              <Ewe>               <Ewe>               <Ewe>               <Ewe>               <Ewe>               <Ewe>               <Ewe>               <Ewe>               <Ewe>               <Ewe>               <Ewe>               <Ewe>               <Ewe>
dEs (mV)            0.00                0.00                0.00                0.00                0.00                0.00                0.00                0.00                0.00                0.00                0.00                0.00                0.00
dts (s)             1.0000              1.0000              1.0000              1.0000              1.0000              1.0000              1.0000              1.0000              1.0000              1.0000              1.0000              1.0000              1.0000
E range min (V)     -2.500              -2.500              -2.500              -2.500              -2.500              -2.500              -2.500              -2.500              -2.500              -2.500              -2.500              -2.500              -2.500
E range max (V)     2.500               2.500               2.500               2.500               2.500               2.500               2.500               2.500               2.500               2.500               2.500               2.500               2.500
I Range             10 mA               10 mA               10 mA               10 mA               10 mA               10 mA               10 mA               10 mA               10 mA               10 mA               10 mA               10 mA               10 mA
Bandwidth           5                   5                   5                   5                   5                   5                   5                   5                   5                   5                   5                   5                   5
goto Ns'            0                   0                   0                   0                   0                   0                   0                   0                   0                   0                   0                   0                   0
nc cycles           0                   0                   0                   0                   0                   0                   0                   0                   0                   0                   0                   0                   0

mode	ox/red	error	control changes	Ns changes	counter inc.	Ns	time/s	control/mA	<Ewe>/V	I/mA	dQ/C	(Q-Qo)/C	half cycle	Q charge/discharge/mA.h	I Range	Energy charge/W.h	Energy discharge/W.h	Capacitance charge/µF	Capacitance discharge/µF	Q discharge/mA.h	Q charge/mA.h	Capacity/mA.h	Efficiency/%	cycle number	P/W
1	1	0	1	0	0	0	719.543	0.01	0.254727	0.00980302	9.28658e-06	9.28658e-06	0	2.57961e-06	11	6.57094e-10	0.000000000000000E+000	0.000000000000000E+000	0.000000000000000E+000	0.000000000000000E+000	2.57961e-06	2.57961e-06	0.0000000E+000	0.000000000000000E+000	2.49709e-06
1	1	0	1	0	0	0	775.543	0.01	0.426005	0.00986665	0.000550026	0.000550026	0	0.000152785	11	6.26675e-08	0.000000000000000E+000	3211.3	0.000000000000000E+000	0.000000000000000E+000	0.000152785	0.000152785	0.0000000E+000	0.000000000000000E+000	4.20324e-06
1	1	0	1	0	0	0	831.543	0.01	0.436776	0.00878497	0.00108495	0.00108495	0	0.000301375	11	1.26855e-07	0.000000000000000E+000	5959.63	0.000000000000000E+000	0.000000000000000E+000	0.000301375	0.000301375	0.0000000E+000	0.000000000000000E+000	3.83707e-06
1	1	0	1	0	0	0	887.543	0.01	0.436154	0.00954851	0.00161979	0.00161979	0	0.000449942	11	1.9191e-07	0.000000000000000E+000	8928.02	0.000000000000000E+000	0.000000000000000E+000	0.000449942	0.000449942	0.0000000E+000	0.000000000000000E+000	4.16462e-06
1	1	0	0	0	0	1	942.596	0.018	0.447959	0.0164839	0.000739321	0.00246459	0	0.000684608	11	2.96257e-07	0.000000000000000E+000	12754.5	0.000000000000000E+000	0.000000000000000E+000	0.000684608	0.000684608	0.0000000E+000	0.000000000000000E+000	7.38413e-06
1	1	0	0	0	0	1	998.596	0.018	0.441609	0.0159113	0.00168128	0.00340655	0	0.000946263	11	4.13004e-07	0.000000000000000E+000	18228.3	0.000000000000000E+000	0.000000000000000E+000	0.000946263	0.000946263	0.0000000E+000	0.000000000000000E+000	7.02657e-06
1	1	0	0	0	0	1	1054.6	0.018	0.416855	0.0170566	0.00262604	0.00435131	0	0.0012087	11	5.25872e-07	0.000000000000000E+000	26838.7	0.000000000000000E+000	0.000000000000000E+000	0.0012087	0.0012087	0.0000000E+000	0.000000000000000E+000	7.11012e-06
1	1	0	1	0	0	2	1109.6	0.032	0.452584	0.0308002	0.000960916	0.00571631	0	0.00158787	11	6.89755e-07	0.000000000000000E+000	28891.1	0.000000000000000E+000	0.000000000000000E+000	0.00158787	0.00158787	0.0000000E+000	0.000000000000000E+000	1.39397e-05
1	1	0	1	0	0	2	1165.6	0.032	0.460482	0.0302912	0.00269616	0.00745156	0	0.00206988	11	9.09987e-07	0.000000000000000E+000	36215.6	0.000000000000000E+000	0.000000000000000E+000	0.00206988	0.00206988	0.0000000E+000	0.000000000000000E+000	1.39486e-05
1	1	0	1	0	0	2	1221.6	0.032	0.467585	0.0309275	0.00443255	0.00918795	0	0.00255221	11	1.13383e-06	0.000000000000000E+000	43164.5	0.000000000000000E+000	0.000000000000000E+000	0.00255221	0.00255221	0.0000000E+000	0.000000000000000E+000	1.44612e-05
1	1	0	0	0	0	3	1276.6	0.056	0.544543	0.0549788	0.000995293	0.0113307	0	0.00314741	11	1.42755e-06	0.000000000000000E+000	39096.1	0.000000000000000E+000	0.000000000000000E+000	0.00314741	0.00314741	0.0000000E+000	0.000000000000000E+000	2.99383e-05
1	1	0	0	0	0	3	1332.6	0.056	0.600145	0.0547879	0.00408935	0.0144247	0	0.00400687	11	1.92648e-06	0.000000000000000E+000	41760.2	0.000000000000000E+000	0.000000000000000E+000	0.00400687	0.00400687	0.0000000E+000	0.000000000000000E+000	3.28807e-05
1	1	0	0	0	0	3	1388.6	0.056	0.609734	0.0556787	0.00718143	0.0175168	0	0.00486578	11	2.44735e-06	0.000000000000000E+000	49342.1	0.000000000000000E+000	0.000000000000000E+000	0.00486578	0.00486578	0.0000000E+000	0.000000000000000E+000	3.39492e-05
1	1	0	1	0	0	4	1443.6	0.1	0.637324	0.0985639	0.000494023	0.0207702	0	0.0057695	11	3.00285e-06	0.000000000000000E+000	54287.4	0.000000000000000E+000	0.000000000000000E+000	0.0057695	0.0057695	0.0000000E+000	0.000000000000000E+000	6.28171e-05
1	1	0	1	0	0	4	1499.6	0.1	0.638719	0.0981185	0.00602832	0.0263045	0	0.0073068	11	3.98425e-06	0.000000000000000E+000	68502.6	0.000000000000000E+000	0.000000000000000E+000	0.0073068	0.0073068	0.0000000E+000	0.000000000000000E+000	6.26702e-05
1	1	0	1	0	0	4	1555.6	0.1	0.638661	0.0988821	0.0115641	0.0318403	0	0.00884453	11	4.96636e-06	0.000000000000000E+000	82931.6	0.000000000000000E+000	0.000000000000000E+000	0.00884453	0.00884453	0.0000000E+000	0.000000000000000E+000	6.31521e-05
1	1	0	1	0	0	4	1611.6	0.1	0.638431	0.099073	0.0170998	0.037376	0	0.0103822	11	5.94829e-06	0.000000000000000E+000	97408.3	0.000000000000000E+000	0.000000000000000E+000	0.0103822	0.0103822	0.0000000E+000	0.000000000000000E+000	6.32512e-05
1	1	0	0	0	0	5	1666.6	0.178	0.662783	0.176826	0.00851065	0.0465784	0	0.0129384	11	7.63715e-06	0.000000000000000E+000	114147	0.000000000000000E+000	0.000000000000000E+000	0.0129384	0.0129384	0.0000000E+000	0.000000000000000E+000	0.000117197
1	1	0	0	0	0	5	1722.6	0.178	0.662872	0.177463	0.0184395	0.0565073	0	0.0156965	11	9.46528e-06	0.000000000000000E+000	138449	0.000000000000000E+000	0.000000000000000E+000	0.0156965	0.0156965	0.0000000E+000	0.000000000000000E+000	0.000117635
1	1	0	0	0	0	5	1778.6	0.178	0.662808	0.177526	0.0283702	0.0664379	0	0.018455	11	1.12937e-05	0.000000000000000E+000	162805	0.000000000000000E+000	0.000000000000000E+000	0.018455	0.018455	0.0000000E+000	0.000000000000000E+000	0.000117666
1	1	0	1	0	0	6	1833.6	0.316	0.690386	0.315599	0.0110216	0.0810073	0	0.022502	11	1.40592e-05	0.000000000000000E+000	185942	0.000000000000000E+000	0.000000000000000E+000	0.022502	0.022502	0.0000000E+000	0.000000000000000E+000	0.000217885
1	1	0	1	0	0	6	1889.6	0.316	0.691041	0.314899	0.028656	0.0986416	0	0.0274005	11	1.7443e-05	0.000000000000000E+000	226079	0.000000000000000E+000	0.000000000000000E+000	0.0274005	0.0274005	0.0000000E+000	0.000000000000000E+000	0.000217608
1	1	0	1	0	0	6	1945.6	0.316	0.691252	0.315281	0.0462907	0.116276	0	0.032299	11	2.08289e-05	0.000000000000000E+000	266368	0.000000000000000E+000	0.000000000000000E+000	0.032299	0.032299	0.0000000E+000	0.000000000000000E+000	0.000217938
1	1	0	0	0	0	7	2000.6	0.562	0.726711	0.560439	0.0123409	0.139009	0	0.0386137	11	2.53136e-05	0.000000000000000E+000	294521	0.000000000000000E+000	0.000000000000000E+000	0.0386137	0.0386137	0.0000000E+000	0.000000000000000E+000	0.000407277
1	1	0	0	0	0	7	2056.6	0.562	0.727812	0.561139	0.043754	0.170422	0	0.0473395	11	3.16604e-05	0.000000000000000E+000	360236	0.000000000000000E+000	0.000000000000000E+000	0.0473395	0.0473395	0.0000000E+000	0.000000000000000E+000	0.000408403
1	1	0	0	0	0	7	2112.6	0.562	0.72849	0.560821	0.0751674	0.201836	0	0.0560655	11	3.80148e-05	0.000000000000000E+000	426026	0.000000000000000E+000	0.000000000000000E+000	0.0560655	0.0560655	0.0000000E+000	0.000000000000000E+000	0.000408552
1	1	0	1	0	0	8	2167.6	1	0.776217	0.999153	0.00899324	0.236631	0	0.0657309	11	4.51745e-05	0.000000000000000E+000	453760	0.000000000000000E+000	0.000000000000000E+000	0.0657309	0.0657309	0.0000000E+000	0.000000000000000E+000	0.000775559
1	1	0	1	0	0	8	2223.6	1	0.778919	0.999535	0.064951	0.292589	0	0.0812747	11	5.72646e-05	0.000000000000000E+000	558171	0.000000000000000E+000	0.000000000000000E+000	0.0812747	0.0812747	0.0000000E+000	0.000000000000000E+000	0.000778557
1	1	0	1	0	0	8	2279.6	1	0.780262	0.99909	0.120908	0.348546	0	0.0968184	11	6.93825e-05	0.000000000000000E+000	663221	0.000000000000000E+000	0.000000000000000E+000	0.0968184	0.0968184	0.0000000E+000	0.000000000000000E+000	0.000779552
1	1	0	1	0	0	8	2335.6	1	0.781494	0.999726	0.176867	0.404505	0	0.112362	11	8.1522e-05	0.000000000000000E+000	767900	0.000000000000000E+000	0.000000000000000E+000	0.112362	0.112362	0.0000000E+000	0.000000000000000E+000	0.00078128
1	1	0	0	0	0	9	2390.6	1.778	0.848055	1.77624	0.0923933	0.499896	0	0.13886	11	0.000103872	0.000000000000000E+000	842529	0.000000000000000E+000	0.000000000000000E+000	0.13886	0.13886	0.0000000E+000	0.000000000000000E+000	0.00150635
1	1	0	0	0	0	9	2446.6	1.778	0.851981	1.77688	0.191892	0.599395	0	0.166499	11	0.000127369	0.000000000000000E+000	1.00358e+06	0.000000000000000E+000	0.000000000000000E+000	0.166499	0.166499	0.0000000E+000	0.000000000000000E+000	0.00151387
1	1	0	0	0	0	9	2502.6	1.778	0.85456	1.7765	0.291393	0.698896	0	0.194138	11	0.000150955	0.000000000000000E+000	1.16515e+06	0.000000000000000E+000	0.000000000000000E+000	0.194138	0.194138	0.0000000E+000	0.000000000000000E+000	0.00151812
1	1	0	1	0	0	10	2557.6	3.162	0.944426	3.15996	0.123274	0.850599	0	0.236277	11	0.000189809	0.000000000000000E+000	1.23329e+06	0.000000000000000E+000	0.000000000000000E+000	0.236277	0.236277	0.0000000E+000	0.000000000000000E+000	0.00298434
1	1	0	1	0	0	10	2613.6	3.162	0.955092	3.16078	0.300283	1.02761	0	0.285447	11	0.000236529	0.000000000000000E+000	1.46725e+06	0.000000000000000E+000	0.000000000000000E+000	0.285447	0.285447	0.0000000E+000	0.000000000000000E+000	0.00301884
1	1	0	1	0	0	10	2669.6	3.162	0.961583	3.16053	0.477293	1.20462	0	0.334616	11	0.000283663	0.000000000000000E+000	1.70419e+06	0.000000000000000E+000	0.000000000000000E+000	0.334616	0.334616	0.0000000E+000	0.000000000000000E+000	0.00303911
1	1	0	0	0	0	11	2724.6	5.623	1.09107	5.62108	0.146152	1.44244	0	0.400677	11	0.000352056	0.000000000000000E+000	1.7247e+06	0.000000000000000E+000	0.000000000000000E+000	0.400677	0.400677	0.0000000E+000	0.000000000000000E+000	0.00613298
1	1	0	0	0	0	11	2780.6	5.623	1.11197	5.62153	0.460944	1.75723	0	0.488119	11	0.00044856	0.000000000000000E+000	2.04987e+06	0.000000000000000E+000	0.000000000000000E+000	0.488119	0.488119	0.0000000E+000	0.000000000000000E+000	0.00625095
1	1	0	0	0	0	11	2836.6	5.623	1.12141	5.62147	0.775735	2.07202	0	0.575561	11	0.000546275	0.000000000000000E+000	2.39075e+06	0.000000000000000E+000	0.000000000000000E+000	0.575561	0.575561	0.0000000E+000	0.000000000000000E+000	0.00630395
1	1	0	1	0	0	12	2891.6	10	1.25638	9.99913	0.129988	2.4381	0	0.67725	11	0.000665284	0.000000000000000E+000	2.43407e+06	0.000000000000000E+000	0.000000000000000E+000	0.67725	0.67725	0.0000000E+000	0.000000000000000E+000	0.0125627
1	1	0	1	0	0	12	2947.6	10	1.26552	9.99964	0.689941	2.99805	0	0.832793	11	0.000861625	0.000000000000000E+000	2.96603e+06	0.000000000000000E+000	0.000000000000000E+000	0.832793	0.832793	0.0000000E+000	0.000000000000000E+000	0.0126548
1	1	0	1	0	0	12	3003.6	10	1.26483	9.99862	1.24989	3.55801	0	0.988335	11	0.00105839	0.000000000000000E+000	3.5224e+06	0.000000000000000E+000	0.000000000000000E+000	0.988335	0.988335	0.0000000E+000	0.000000000000000E+000	0.0126466
1	1	0	1	0	0	12	3058.6	10	1.26352	9.99881	1.79985	4.10796	0	1.1411	11	0.00125154	0.000000000000000E+000	4.07217e+06	0.000000000000000E+000	0.000000000000000E+000	1.1411	1.1411	0.0000000E+000	0.000000000000000E+000	0.0126337