File: Data/2022_01_11 FeNx Ti electrode set1_02_CV_C05.mpt
EC-Lab ASCII FILE
Nb header lines : 57

Cyclic Voltammetry

Run on channel : 5 (SN 30436)
User :
CE vs. WE compliance from -10 V to 10 V
Electrode connection : standard
Potential control : Ewe
Ewe ctrl range : min = -2,50 V, max = 2,50 V
Safety Limits :
	Do not start on E overload
Acquisition started on : 01/11/2023 11:36:25.784
Loaded Setting File :  C:\Users\grupogalan\Documents\EC-Lab\Data\Scott\2022_01_05 CoNx Ti electrode1.mps
Saved on :
	File : 2022_01_11 FeNx Ti electrode set1_02_CV_C05.mpr
	Directory : C:\Users\grupogalan\Documents\EC-Lab\Data\Scott\
	Host : 169.254.104.159
Device : VSP (SN 1176)
Address : USB
EC-Lab for windows v11.46 (software)
Internet server v11.40 (firmware)
Command interpretor v11.40 (firmware)
Electrode material :
Initial state :
Electrolyte :
Comments :
Electrode surface area : 0,000 cm²
Characteristic mass : 0,001 g
Equivalent Weight : 0,000 g/eq.
Density : 0,000 g/cm3
Volume (V) : 0,001 cm³
Cycle Definition : Charge/Discharge alternance
Ei (V)              0,000
vs.                 Eoc
dE/dt               10,000
dE/dt unit          mV/s
E1 (V)              1,000
vs.                 Ref
Step percent        50
N                   10
E range min (V)     -2,500
E range max (V)     2,500
I Range             Auto
I Range min         Unset
I Range max         Unset
I Range init        Unset
Bandwidth           5
E2 (V)              0,000
vs.                 Ref
nc cycles           2
Reverse Scan        0
Ef (V)              0,000
vs.                 Ref

mode	ox/red	error	control changes	counter inc.	time/s	control/V	Ewe/V	<I>/mA	cycle number	(Q-Qo)/C	I Range	P/W
2	0	0	1	0	8,096860384139291E+001	-5,5079479E-002	-5,5388663E-002	-2,380305668339133E-003	1,000000000000000E+000	0,0000000E+000	14	1,3184194E-007
2	1	0	1	0	8,965440362197114E+001	3,1778049E-002	3,1766951E-002	2,881272446312433E-002	1,000000000000000E+000	1,7743000E-004	13	9,1529239E-007
2	1	0	1	0	9,835520340217045E+001	1,1878556E-001	1,1880156E-001	4,842418372303392E-002	1,000000000000000E+000	5,3205935E-004	13	5,7528682E-006
2	1	0	1	0	1,070560031823698E+002	2,0579308E-001	2,0572792E-001	6,623215073961042E-002	1,000000000000000E+000	1,0494806E-003	13	1,3625802E-005
2	1	0	1	0	1,157568029625691E+002	2,9280064E-001	2,9283470E-001	8,476702362747401E-002	1,000000000000000E+000	1,7231675E-003	13	2,4822726E-005
2	1	0	0	0	1,244874027420155E+002	3,8010818E-001	3,8012511E-001	1,090370318852365E-001	1,000000000000000E+000	2,5799433E-003	12	4,1447714E-005
2	1	0	0	0	1,331882025222149E+002	4,6711564E-001	4,6702707E-001	1,403370686737753E-001	1,000000000000000E+000	3,6680175E-003	12	6,5541208E-005
2	1	0	0	0	1,418890023024142E+002	5,5412322E-001	5,5399907E-001	1,809126340473686E-001	1,000000000000000E+000	5,0767031E-003	12	1,0022543E-004
2	1	0	0	0	1,505898020826135E+002	6,4113075E-001	6,4114195E-001	2,680924634828612E-001	1,000000000000000E+000	6,9383597E-003	12	1,7188533E-004
2	1	0	1	0	1,592904018628178E+002	7,2813815E-001	7,2800964E-001	9,793631807984635E-001	1,000000000000000E+000	1,1264505E-002	12	7,1298581E-004
2	1	0	1	0	1,680212016422593E+002	8,1544578E-001	8,1530559E-001	6,352336064532963E+000	1,000000000000000E+000	3,7114263E-002	11	5,1790951E-003
2	1	0	1	0	1,767520014217007E+002	9,0275341E-001	9,0277642E-001	2,413071578961819E+001	1,000000000000000E+000	1,5740252E-001	10	2,1784641E-002
2	1	0	1	0	1,854528012019000E+002	9,8976088E-001	9,8973459E-001	4,790960027111907E+001	1,000000000000000E+000	4,9123871E-001	10	4,7417790E-002
2	1	0	1	0	1,940340009851207E+002	9,2445529E-001	9,2456162E-001	2,058054583160967E+001	1,000000000000000E+000	7,8537858E-001	10	1,9027982E-002
2	1	0	1	0	2,027348007653200E+002	8,3744776E-001	8,3747488E-001	6,717695405085834E+000	1,000000000000000E+000	8,9560354E-001	10	5,6259013E-003
2	1	0	1	0	2,114656005447614E+002	7,5014019E-001	7,5016975E-001	1,310009213923305E+000	1,000000000000000E+000	9,2618340E-001	11	9,8272925E-004
2	1	0	0	0	2,201962003242079E+002	6,6283262E-001	6,6281676E-001	1,096764622359641E-001	1,000000000000000E+000	9,3059534E-001	12	7,2695395E-005
2	1	0	0	0	2,289270001036493E+002	5,7552505E-001	5,7553798E-001	1,429894810145785E-002	1,000000000000000E+000	9,3096673E-001	13	8,2295874E-006
2	1	0	0	0	2,376277998838486E+002	4,8851755E-001	4,8845240E-001	3,768132734350074E-003	1,000000000000000E+000	9,3103093E-001	13	1,8405535E-006
2	0	0	0	0	2,463285996640479E+002	4,0151000E-001	4,0146238E-001	-3,033425050645105E-003	1,000000000000000E+000	9,3102574E-001	13	-1,2178060E-006
2	0	0	1	0	2,550292994442498E+002	3,1450230E-001	3,1431341E-001	-2,383585128852148E-003	1,000000000000000E+000	9,3099695E-001	13	-7,4919279E-007
2	0	0	1	0	2,637299992244516E+002	2,2749496E-001	2,2743885E-001	-4,511384912769215E-003	1,000000000000000E+000	9,3096381E-001	13	-1,0260642E-006
2	0	0	1	0	2,724307990046509E+002	1,4048745E-001	1,4041907E-001	-7,550132698034506E-003	1,000000000000000E+000	9,3090713E-001	13	-1,0601826E-006
2	0	0	1	0	2,811315987848502E+002	5,3479921E-002	5,3296369E-002	-1,230547814285035E-002	1,000000000000000E+000	9,3081689E-001	13	-6,5583731E-007
2	1	0	1	1	2,897327985675656E+002	3,2578114E-002	3,2560799E-002	8,293416527117647E-005	2,000000000000000E+000	9,3072158E-001	13	2,7004028E-009
2	1	0	1	1	2,984335983477649E+002	1,1958563E-001	1,1966334E-001	6,536726747139336E-003	2,000000000000000E+000	9,3076283E-001	13	7,8220660E-007
2	1	0	1	1	3,071343981279642E+002	2,0659316E-001	2,0647614E-001	9,450490777251450E-003	2,000000000000000E+000	9,3083841E-001	13	1,9513009E-006
2	1	0	1	1	3,158351979081635E+002	2,9360068E-001	2,9359141E-001	1,180264584426938E-002	2,000000000000000E+000	9,3093586E-001	13	3,4651555E-006
2	1	0	0	1	3,245357976883679E+002	3,8060823E-001	3,8068441E-001	1,441325090989393E-002	2,000000000000000E+000	9,3105429E-001	13	5,4868997E-006
2	1	0	0	1	3,332365974685672E+002	4,6761578E-001	4,6758637E-001	2,030176357624847E-002	2,000000000000000E+000	9,3120146E-001	13	9,4928282E-006
2	1	0	0	1	3,419373972487665E+002	5,5462325E-001	5,5466872E-001	2,796526193722254E-002	2,000000000000000E+000	9,3141347E-001	13	1,5511456E-005
2	1	0	0	1	3,506381970289658E+002	6,4163077E-001	6,4163435E-001	7,636187045352028E-002	2,000000000000000E+000	9,3179083E-001	13	4,8996400E-005
2	1	0	1	1	3,593688968084098E+002	7,2893786E-001	7,2892636E-001	5,241861470490754E-001	2,000000000000000E+000	9,3376106E-001	12	3,8209310E-004
2	1	0	1	1	3,680995965878537E+002	8,1624579E-001	8,1612813E-001	3,908421131195851E+000	2,000000000000000E+000	9,4923425E-001	11	3,1897724E-003
2	1	0	1	1	3,768303963672952E+002	9,0355343E-001	9,0360528E-001	1,292377093103198E+001	2,000000000000000E+000	1,0192351E+000	10	1,1677988E-002
2	1	0	1	1	3,855311961474945E+002	9,9056101E-001	9,9056762E-001	2,402903598546985E+001	2,000000000000000E+000	1,1805053E+000	10	2,3802385E-002
2	1	0	1	1	3,941323959302099E+002	9,2345512E-001	9,2348009E-001	1,137006216137499E+001	2,000000000000000E+000	1,3369389E+000	10	1,0500026E-002
2	1	0	1	1	4,028631957096513E+002	8,3614761E-001	8,3621097E-001	4,064059729377433E+000	2,000000000000000E+000	1,4002169E+000	11	3,3984112E-003
2	1	0	1	1	4,115639954898506E+002	7,4914014E-001	7,4908406E-001	9,477949902691254E-001	2,000000000000000E+000	1,4197496E+000	11	7,0997811E-004
2	1	0	0	1	4,202945952692971E+002	6,6183257E-001	6,6178727E-001	9,619732273535614E-002	2,000000000000000E+000	1,4231991E+000	12	6,3662163E-005
2	1	0	0	1	4,290253950487386E+002	5,7452506E-001	5,7446289E-001	8,858559476923086E-003	2,000000000000000E+000	1,4235016E+000	13	5,0889139E-006
2	1	0	0	1	4,377261948289379E+002	4,8751751E-001	4,8756307E-001	1,219130706422898E-003	2,000000000000000E+000	1,4235338E+000	13	5,9440310E-007
2	0	0	0	1	4,464269946091372E+002	4,0050992E-001	4,0036929E-001	-3,956829769094852E-003	2,000000000000000E+000	1,4235139E+000	13	-1,5841931E-006
2	0	0	0	1	4,551277943893365E+002	3,1350237E-001	3,1346309E-001	-2,908118831749525E-003	2,000000000000000E+000	1,4234797E+000	13	-9,1158790E-007
2	0	0	1	1	4,638283941695408E+002	2,2649486E-001	2,2640298E-001	-4,097360109830729E-003	2,000000000000000E+000	1,4234468E+000	13	-9,2765453E-007
2	0	0	1	1	4,725291939497401E+002	1,3948736E-001	1,3942890E-001	-6,330959776446585E-003	2,000000000000000E+000	1,4233979E+000	13	-8,8271872E-007
2	0	0	1	1	4,812299937299395E+002	5,2479837E-002	5,2390024E-002	-9,902768039696488E-003	2,000000000000000E+000	1,4233242E+000	13	-5,1880625E-007
2	0	0	1	0	4,898311935126549E+002	3,3578202E-002	3,3618912E-002	5,482579187535662E-004	3,000000000000000E+000	1,4232506E+000	13	1,8431836E-008
2	1	0	1	0	4,985319932928542E+002	1,2058572E-001	1,2059302E-001	5,228598014043559E-003	3,000000000000000E+000	1,4232858E+000	13	6,3053244E-007
2	1	0	1	0	5,072327930730535E+002	2,0759323E-001	2,0754273E-001	7,166789630126125E-003	3,000000000000000E+000	1,4233446E+000	13	1,4874151E-006
2	1	0	1	0	5,159335928532528E+002	2,9460075E-001	2,9453811E-001	8,725504678699897E-003	3,000000000000000E+000	1,4234176E+000	13	2,5699937E-006
2	1	0	0	0	5,246341926334571E+002	3,8160831E-001	3,8154089E-001	1,057271351735964E-002	3,000000000000000E+000	1,4235049E+000	13	4,0339228E-006
2	1	0	0	0	5,333349924136564E+002	4,6861583E-001	4,6851817E-001	1,573289552255083E-002	3,000000000000000E+000	1,4236147E+000	13	7,3711476E-006
2	1	0	0	0	5,420357921938557E+002	5,5562329E-001	5,5556124E-001	2,201199743905349E-002	3,000000000000000E+000	1,4237808E+000	13	1,2229013E-005
2	1	0	0	0	5,507365919740550E+002	6,4263088E-001	6,4263511E-001	7,179641746915885E-002	3,000000000000000E+000	1,4241025E+000	13	4,6138899E-005
2	1	0	0	0	5,594673917534965E+002	7,2993845E-001	7,2991705E-001	5,071009421652128E-001	3,000000000000000E+000	1,4260617E+000	12	3,7014161E-004
2	1	0	1	0	5,681979915329430E+002	8,1724602E-001	8,1728178E-001	2,789000909085622E+000	3,000000000000000E+000	1,4383194E+000	11	2,2793997E-003
2	1	0	1	0	5,768987913131423E+002	9,0425348E-001	9,0428871E-001	8,229707762047120E+000	3,000000000000000E+000	1,4839193E+000	11	7,4420320E-003
2	1	0	1	0	5,856295910925837E+002	9,9156094E-001	9,9151975E-001	1,687781701926832E+001	3,000000000000000E+000	1,5916934E+000	10	1,6734689E-002
2	1	0	1	0	5,942307908752991E+002	9,2245501E-001	9,2236465E-001	8,375689509842108E+000	3,000000000000000E+000	1,7042581E+000	10	7,7254400E-003
2	1	0	1	0	6,029515906549932E+002	8,3524758E-001	8,3522183E-001	3,015918594267646E+000	3,000000000000000E+000	1,7507014E+000	11	2,5189610E-003
2	1	0	1	0	6,116523904351925E+002	7,4824005E-001	7,4814594E-001	7,494727905011822E-001	3,000000000000000E+000	1,7654971E+000	11	5,6071504E-004
2	1	0	0	0	6,203829902146390E+002	6,6093242E-001	6,6085863E-001	8,618687713277284E-002	3,000000000000000E+000	1,7683492E+000	12	5,6957342E-005
2	1	0	0	0	6,291137899940804E+002	5,7362485E-001	5,7364571E-001	7,487946471277068E-003	3,000000000000000E+000	1,7686206E+000	13	4,2954284E-006
2	0	0	0	0	6,378145897742797E+002	4,8661739E-001	4,8660049E-001	6,924661503641470E-004	3,000000000000000E+000	1,7686464E+000	13	3,3695437E-007
2	0	0	0	0	6,465153895544790E+002	3,9960983E-001	3,9955100E-001	-3,930148062002675E-003	3,000000000000000E+000	1,7686244E+000	13	-1,5702946E-006
2	1	0	0	0	6,552161893346783E+002	3,1260234E-001	3,1233278E-001	-2,804744006408760E-003	3,000000000000000E+000	1,7685918E+000	13	-8,7601347E-007
2	1	0	1	0	6,639167891148827E+002	2,2559480E-001	2,2549134E-001	-3,804950828065631E-003	3,000000000000000E+000	1,7685611E+000	13	-8,5798348E-007
2	0	0	1	0	6,726175888950820E+002	1,3858728E-001	1,3855013E-001	-5,690196678592135E-003	3,000000000000000E+000	1,7685169E+000	13	-7,8837752E-007
2	0	0	1	0	6,813183886752813E+002	5,1579759E-002	5,1405143E-002	-8,723715079853450E-003	3,000000000000000E+000	1,7684520E+000	13	-4,4844381E-007
2	0	0	1	0	6,864713885451056E+002	2,5299727E-005	-6,5505737E-005	-1,152963230075937E-002	3,000000000000000E+000	1,7683969E+000	13	7,5525708E-010