File: Data/2022_01_11 FeNx Ti electrode set2_03_CP_C05.mpt
EC-Lab ASCII FILE
Nb header lines : 52

Chronopotentiometry

Run on channel : 5 (SN 30436)
User :
CE vs. WE compliance from -10 V to 10 V
Electrode connection : standard
Potential control : Ewe
Ewe ctrl range : min = -2,50 V, max = 2,50 V
Safety Limits :
	Do not start on E overload
Acquisition started on : 01/11/2023 12:58:29.644
Loaded Setting File :  C:\Users\grupogalan\Documents\EC-Lab\Data\Scott\2022_01_05 CoNx Ti electrode1 exp2.mps
Saved on :
	File : 2022_01_11 FeNx Ti electrode set2_03_CP_C05.mpr
	Directory : C:\Users\grupogalan\Documents\EC-Lab\Data\Scott\
	Host : 169.254.104.159
Device : VSP (SN 1176)
Address : USB
EC-Lab for windows v11.46 (software)
Internet server v11.40 (firmware)
Command interpretor v11.40 (firmware)
Electrode material :
Initial state :
Electrolyte :
Comments :
Electrode surface area : 0,000 cm²
Characteristic mass : 0,001 g
Equivalent Weight : 0,000 g/eq.
Density : 0,000 g/cm3
Volume (V) : 0,001 cm³
Cycle Definition : Charge/Discharge alternance
Is                  10,000
unit Is             mA
vs.                 <None>
ts (h:m:s)          2:00:0,0000
EM (V)              pass
dQM                 20,000
unit dQM            mA.h
record              <Ewe>
dEs (mV)            0,00
dts (s)             1,0000
E range min (V)     -2,500
E range max (V)     2,500
I Range             10 mA
Bandwidth           5
goto Ns'            0
nc cycles           0

mode	ox/red	error	control changes	Ns changes	counter inc.	Ns	time/s	control/mA	<Ewe>/V	I/mA	dQ/C	(Q-Qo)/C	half cycle	Q charge/discharge/mA.h	I Range	Energy charge/W.h	Energy discharge/W.h	Capacitance charge/µF	Capacitance discharge/µF	Q discharge/mA.h	Q charge/mA.h	Capacity/mA.h	Efficiency/%	cycle number	P/W
1	1	0	0	0	0	0	5,020492685333316E+003	1,0000000E+001	1,0565331E+000	9,9991283E+000	9,4749536E-003	9,4749536E-003	0	2,631931565701962E-003	11	2,780722811416281E-006	0,000000000000000E+000	0,000000000000000E+000	0,000000000000000E+000	0,000000000000000E+000	2,631931565701962E-003	2,631931565701962E-003	0,0000000E+000	0,000000000000000E+000	1,0564410E-002
1	1	0	0	0	0	0	5,275492682245982E+003	1,0000000E+001	1,1238006E+000	9,9986830E+000	2,5591462E+000	2,5591462E+000	0	7,108739349577162E-001	11	7,616836869549303E-004	0,000000000000000E+000	3,804429707893762E+007	0,000000000000000E+000	0,000000000000000E+000	7,108739349577162E-001	7,108739349577162E-001	0,0000000E+000	0,000000000000000E+000	1,1236526E-002
1	1	0	0	0	0	0	5,530492679158648E+003	1,0000000E+001	1,3926991E+000	9,9994459E+000	5,1088052E+000	5,1088052E+000	0	1,419112549887763E+000	11	1,647692936191482E-003	0,000000000000000E+000	1,519726805119922E+007	0,000000000000000E+000	0,000000000000000E+000	1,419112549887763E+000	1,419112549887763E+000	0,0000000E+000	0,000000000000000E+000	1,3926219E-002
1	1	0	0	0	0	0	5,785492676071313E+003	1,0000000E+001	1,5796899E+000	9,9991283E+000	7,6584711E+000	7,6584711E+000	0	2,127353085411920E+000	11	2,709042627093087E-003	0,000000000000000E+000	1,463896036897778E+007	0,000000000000000E+000	0,000000000000000E+000	2,127353085411920E+000	2,127353085411920E+000	0,0000000E+000	0,000000000000000E+000	1,5795521E-002
1	1	0	0	0	0	0	6,040492672983979E+003	1,0000000E+001	1,7434516E+000	9,9981737E+000	1,0208131E+001	1,0208131E+001	0	2,835591899024116E+000	11	3,883339704508796E-003	0,000000000000000E+000	1,486075987150942E+007	0,000000000000000E+000	0,000000000000000E+000	2,835591899024116E+000	2,835591899024116E+000	0,0000000E+000	0,000000000000000E+000	1,7431332E-002
1	1	0	0	0	0	0	6,295492669896645E+003	1,0000000E+001	1,8139396E+000	9,9990644E+000	1,2757804E+001	1,2757804E+001	0	3,543834421369764E+000	11	5,129573103425569E-003	0,000000000000000E+000	1,684406506813632E+007	0,000000000000000E+000	0,000000000000000E+000	3,543834421369764E+000	3,543834421369764E+000	0,0000000E+000	0,000000000000000E+000	1,8137699E-002
1	1	0	0	0	0	0	6,550492666809310E+003	1,0000000E+001	1,8814791E+000	9,9986830E+000	1,5307476E+001	1,5307476E+001	0	4,252076678805881E+000	11	6,427572974838825E-003	0,000000000000000E+000	1,855572994165299E+007	0,000000000000000E+000	0,000000000000000E+000	4,252076678805881E+000	4,252076678805881E+000	0,0000000E+000	0,000000000000000E+000	1,8812314E-002
1	1	0	0	0	0	0	6,805492663721976E+003	1,0000000E+001	1,8852817E+000	9,9983644E+000	1,7857138E+001	1,7857138E+001	0	4,960316022237142E+000	11	7,752546555585755E-003	0,000000000000000E+000	2,154711094444557E+007	0,000000000000000E+000	0,000000000000000E+000	4,960316022237142E+000	4,960316022237142E+000	0,0000000E+000	0,000000000000000E+000	1,8849734E-002
1	1	0	0	0	0	0	7,060492660634642E+003	1,0000000E+001	1,9667032E+000	9,9985552E+000	2,0406797E+001	2,0406797E+001	0	5,668554835849339E+000	11	9,105241400751781E-003	0,000000000000000E+000	2,242086165662090E+007	0,000000000000000E+000	0,000000000000000E+000	5,668554835849339E+000	5,668554835849339E+000	0,0000000E+000	0,000000000000000E+000	1,9664191E-002
1	1	0	0	0	0	0	7,315492657547307E+003	1,0000000E+001	1,8862463E+000	9,9991913E+000	2,2956459E+001	2,2956459E+001	0	6,376794179280599E+000	11	1,046609417038204E-002	0,000000000000000E+000	2,766794398790024E+007	0,000000000000000E+000	0,000000000000000E+000	6,376794179280599E+000	6,376794179280599E+000	0,0000000E+000	0,000000000000000E+000	1,8860938E-002
1	1	0	0	0	0	0	7,570492654459973E+003	1,0000000E+001	1,9134235E+000	9,9991283E+000	2,5506123E+001	2,5506123E+001	0	7,085034052530925E+000	11	1,184309557247255E-002	0,000000000000000E+000	2,976590868430374E+007	0,000000000000000E+000	0,000000000000000E+000	7,085034052530925E+000	7,085034052530925E+000	0,0000000E+000	0,000000000000000E+000	1,9132568E-002
1	1	0	0	0	0	0	7,825492651372639E+003	1,0000000E+001	1,9026135E+000	9,9979820E+000	2,8055784E+001	2,8055784E+001	0	7,793273395962185E+000	11	1,321940131356179E-002	0,000000000000000E+000	3,315971328805032E+007	0,000000000000000E+000	0,000000000000000E+000	7,793273395962185E+000	7,793273395962185E+000	0,0000000E+000	0,000000000000000E+000	1,9022295E-002
1	1	0	0	0	0	0	8,080492648285304E+003	1,0000000E+001	1,9033591E+000	9,9986830E+000	3,0605444E+001	3,0605444E+001	0	8,501512209574381E+000	11	1,459003378583031E-002	0,000000000000000E+000	3,614136256771304E+007	0,000000000000000E+000	0,000000000000000E+000	8,501512209574381E+000	8,501512209574381E+000	0,0000000E+000	0,000000000000000E+000	1,9031083E-002
1	1	0	0	0	0	0	8,335492645197985E+003	1,0000000E+001	1,9452138E+000	9,9991283E+000	3,3155102E+001	3,3155102E+001	0	9,209750493367514E+000	11	1,595745246072584E-002	0,000000000000000E+000	3,730822769884721E+007	0,000000000000000E+000	0,000000000000000E+000	9,209750493367514E+000	9,209750493367514E+000	0,0000000E+000	0,000000000000000E+000	1,9450443E-002
1	1	0	0	0	0	0	8,590492642110650E+003	1,0000000E+001	1,9186521E+000	9,9989376E+000	3,5704769E+001	3,5704769E+001	0	9,917991426255968E+000	11	1,733423825100137E-002	0,000000000000000E+000	4,141513041107149E+007	0,000000000000000E+000	0,000000000000000E+000	9,917991426255968E+000	9,917991426255968E+000	0,0000000E+000	0,000000000000000E+000	1,9184481E-002
1	1	0	0	0	0	0	8,845492639023316E+003	1,0000000E+001	1,9313055E+000	9,9984922E+000	3,8254440E+001	3,8254440E+001	0	1,062623341878255E+001	11	1,871522682996720E-002	0,000000000000000E+000	4,373073386750263E+007	0,000000000000000E+000	0,000000000000000E+000	1,062623341878255E+001	1,062623341878255E+001	0,0000000E+000	0,000000000000000E+000	1,9310143E-002
1	1	0	0	0	0	0	9,100492635935982E+003	1,0000000E+001	2,0038691E+000	9,9992552E+000	4,0804104E+001	4,0804104E+001	0	1,133447329203288E+001	11	2,010294666245310E-002	0,000000000000000E+000	4,307247443320166E+007	0,000000000000000E+000	0,000000000000000E+000	1,133447329203288E+001	1,133447329203288E+001	0,0000000E+000	0,000000000000000E+000	2,0037198E-002
1	1	0	0	0	0	0	9,355492632848647E+003	1,0000000E+001	1,9662210E+000	9,9991283E+000	4,3353767E+001	4,3353767E+001	0	1,204271316528320E+001	11	2,148320087535262E-002	0,000000000000000E+000	4,765784892311180E+007	0,000000000000000E+000	0,000000000000000E+000	1,204271316528320E+001	1,204271316528320E+001	0,0000000E+000	0,000000000000000E+000	1,9660495E-002
1	1	0	0	0	0	0	9,610492629761284E+003	1,0000000E+001	1,9979206E+000	9,9986830E+000	4,5903435E+001	4,5903435E+001	0	1,275095409817166E+001	11	2,287650909411871E-002	0,000000000000000E+000	4,876146442206472E+007	0,000000000000000E+000	0,000000000000000E+000	1,275095409817166E+001	1,275095409817166E+001	0,0000000E+000	0,000000000000000E+000	1,9976575E-002
1	1	0	0	0	0	0	9,865492626673949E+003	1,0000000E+001	1,9647448E+000	9,9983015E+000	4,8453106E+001	4,8453106E+001	0	1,345919609069824E+001	11	2,426247332803905E-002	0,000000000000000E+000	5,335001244317877E+007	0,000000000000000E+000	0,000000000000000E+000	1,345919609069824E+001	1,345919609069824E+001	0,0000000E+000	0,000000000000000E+000	1,9644111E-002
1	1	0	0	0	0	0	1,012049262358662E+004	1,0000000E+001	1,9956228E+000	9,9986830E+000	5,1002785E+001	5,1002785E+001	0	1,416744020250109E+001	11	2,565710243703596E-002	0,000000000000000E+000	5,431087906236056E+007	0,000000000000000E+000	0,000000000000000E+000	1,416744020250109E+001	1,416744020250109E+001	0,0000000E+000	0,000000000000000E+000	1,9953599E-002
1	1	0	0	0	0	0	1,037549262049928E+004	1,0000000E+001	1,9998505E+000	9,9978561E+000	5,3552456E+001	5,3552456E+001	0	1,487568219502767E+001	11	2,705304713153761E-002	0,000000000000000E+000	5,677034595709404E+007	0,000000000000000E+000	0,000000000000000E+000	1,487568219502767E+001	1,487568219502767E+001	0,0000000E+000	0,000000000000000E+000	1,9994218E-002
1	1	0	0	0	0	0	1,063049261741195E+004	1,0000000E+001	1,9943969E+000	9,9980469E+000	5,6102127E+001	5,6102127E+001	0	1,558392418755425E+001	11	2,844869297952606E-002	0,000000000000000E+000	5,981905418988704E+007	0,000000000000000E+000	0,000000000000000E+000	1,558392418755425E+001	1,558392418755425E+001	0,0000000E+000	0,000000000000000E+000	1,9940075E-002
1	1	0	0	0	0	0	1,088549261432461E+004	1,0000000E+001	2,0209124E+000	9,9983015E+000	5,8651798E+001	5,8651798E+001	0	1,629216618008084E+001	11	2,984242294170272E-002	0,000000000000000E+000	6,081818388588098E+007	0,000000000000000E+000	0,000000000000000E+000	1,629216618008084E+001	1,629216618008084E+001	0,0000000E+000	0,000000000000000E+000	2,0205691E-002
1	1	0	0	0	0	0	1,114049261123728E+004	1,0000000E+001	2,0518315E+000	9,9986830E+000	6,1201477E+001	6,1201477E+001	0	1,700041029188368E+001	11	3,124024880483959E-002	0,000000000000000E+000	6,149058205560123E+007	0,000000000000000E+000	0,000000000000000E+000	1,700041029188368E+001	1,700041029188368E+001	0,0000000E+000	0,000000000000000E+000	2,0515613E-002
1	1	0	0	0	0	0	1,139549260814994E+004	1,0000000E+001	1,9831985E+000	9,9981737E+000	6,3751144E+001	6,3751144E+001	0	1,770865122477214E+001	11	3,263601809750440E-002	0,000000000000000E+000	6,879629116247609E+007	0,000000000000000E+000	0,000000000000000E+000	1,770865122477214E+001	1,770865122477214E+001	0,0000000E+000	0,000000000000000E+000	1,9828364E-002
1	1	0	0	0	0	0	1,165049260506261E+004	1,0000000E+001	1,9659544E+000	9,9991913E+000	6,6300819E+001	6,6300819E+001	0	1,841689427693685E+001	11	3,403553701141847E-002	0,000000000000000E+000	7,290440370601900E+007	0,000000000000000E+000	0,000000000000000E+000	1,841689427693685E+001	1,841689427693685E+001	0,0000000E+000	0,000000000000000E+000	1,9657955E-002
1	1	0	0	0	0	0	1,190549260197527E+004	1,0000000E+001	1,8972127E+000	9,9988098E+000	6,8850494E+001	6,8850494E+001	0	1,912513732910156E+001	11	3,542250554278858E-002	0,000000000000000E+000	8,189860995228110E+007	0,000000000000000E+000	0,000000000000000E+000	1,912513732910156E+001	1,912513732910156E+001	0,0000000E+000	0,000000000000000E+000	1,8969869E-002
1	1	0	0	0	0	0	1,216049259888794E+004	1,0000000E+001	1,9595013E+000	9,9993191E+000	7,1400177E+001	7,1400177E+001	0	1,983338250054253E+001	11	3,681332383187638E-002	0,000000000000000E+000	7,907275085858798E+007	0,000000000000000E+000	0,000000000000000E+000	1,983338250054253E+001	1,983338250054253E+001	0,0000000E+000	0,000000000000000E+000	1,9593678E-002
1	1	0	0	0	0	0	1,221954519817300E+004	1,0000000E+001	1,9730091E+000	9,9988098E+000	7,1990631E+001	7,1990631E+001	0	1,999739752875434E+001	11	3,713098294310868E-002	0,000000000000000E+000	7,855157169172882E+007	0,000000000000000E+000	0,000000000000000E+000	1,999739752875434E+001	1,999739752875434E+001	0,0000000E+000	0,000000000000000E+000	1,9727742E-002