File: Data/2022_01_04 NiNx Ti electrode1_02_CV_C05.mpt
EC-Lab ASCII FILE
Nb header lines : 61

Cyclic Voltammetry

Run on channel : 5 (SN 30436)
User :
CE vs. WE compliance from -10 V to 10 V
Electrode connection : standard
Potential control : Ewe
Ewe ctrl range : min = -2.50 V, max = 2.50 V
Safety Limits :
	Do not start on E overload
Acquisition started on : 01/04/2023 12:17:22.870
Technique started on : 01/04/2023 12:18:44.191
Loaded Setting File :  NONE
Saved on :
	File : 2022_01_04 NiNx Ti electrode1_02_CV_C05.mpr
	Directory : C:\Users\grupogalan\Documents\EC-Lab\Data\Scott\
	Host : 169.254.104.159
Device : VSP (SN 1176)
Address : USB
EC-Lab for windows v11.46 (software)
Internet server v11.40 (firmware)
Command interpretor v11.40 (firmware)
Electrode material :
Initial state :
Electrolyte :
Comments :
Electrode surface area : 0.000 cm²
Characteristic mass : 0.001 g
Equivalent Weight : 0.000 g/eq.
Density : 0.000 g/cm3
Volume (V) : 0.001 cm³
Cycle Definition : Charge/Discharge alternance
Ei (V)              0.000
vs.                 Eoc
dE/dt               10.000
dE/dt unit          mV/s
E1 (V)              1.000
vs.                 Ref
Step percent        50
N                   10
E range min (V)     -2.500
E range max (V)     2.500
I Range             Auto
I Range min         Unset
I Range max         Unset
I Range init        Unset
Bandwidth           5
E2 (V)              0.000
vs.                 Ref
nc cycles           2
Reverse Scan        1
Ef (V)              0.000
vs.                 Eoc

Modify on : 01/04/2023 12:19
vs.                 Ref

mode	ox/red	error	control changes	counter inc.	time/s	control/V	Ewe/V	<I>/mA	cycle number	(Q-Qo)/C	I Range	P/W
2	0	0	1	0	81.3206	-0.188491	-0.189048	-0.0400743	1	0.0000000E+000	13	7.57595e-06
2	1	0	1	0	85.8364	-0.143335	-0.143373	0.000725416	1	3.82718e-06	13	-1.04005e-07
2	1	0	0	0	90.337	-0.0983288	-0.098443	0.00112889	1	8.88089e-06	13	-1.11131e-07
2	1	0	1	0	94.8376	-0.0533225	-0.0535682	0.00150258	1	1.59442e-05	13	-8.04905e-08
2	1	0	0	0	99.3382	-0.00831619	-0.0084526	0.00172779	1	2.42379e-05	13	-1.46043e-08
2	1	0	1	0	103.839	0.0366901	0.036594	0.00209846	1	3.3928e-05	13	7.67912e-08
2	1	0	0	0	108.339	0.0816964	0.081699	0.00250202	1	4.53908e-05	13	2.04412e-07
2	1	0	0	0	112.84	0.126703	0.126616	0.00301303	1	5.9003e-05	13	3.81498e-07
2	1	0	1	0	117.341	0.171709	0.171595	0.0035852	1	7.52481e-05	13	6.15203e-07
2	1	0	0	0	121.841	0.216715	0.216636	0.00446829	1	9.49515e-05	13	9.67993e-07
2	1	0	1	0	126.342	0.261722	0.261563	0.00564024	1	0.000119433	13	1.47528e-06
2	1	0	0	0	130.843	0.306728	0.306527	0.00720879	1	0.000150388	13	2.20969e-06
2	1	0	1	0	135.343	0.351734	0.351536	0.00913785	1	0.000189478	13	3.21228e-06
2	1	0	1	0	139.844	0.39674	0.396592	0.011773	1	0.000238984	13	4.66906e-06
2	1	0	0	0	144.345	0.441747	0.4417	0.0326065	1	0.000314846	13	1.44023e-05
2	1	0	1	0	148.845	0.486753	0.486761	0.0805555	1	0.000601694	13	3.92113e-05
2	1	0	0	0	153.376	0.532059	0.531999	0.114309	1	0.00104424	12	6.08125e-05
2	1	0	1	0	157.876	0.577066	0.576905	0.128695	1	0.00160574	12	7.42447e-05
2	1	0	0	0	162.377	0.622072	0.622006	0.147912	1	0.0022235	12	9.2002e-05
2	1	0	1	0	166.878	0.667078	0.666984	0.219938	1	0.00302589	12	0.000146695
2	1	0	1	0	171.378	0.712085	0.712017	0.378709	1	0.00433746	12	0.000269647
2	1	0	0	0	175.879	0.757091	0.757008	0.696629	1	0.00670176	12	0.000527354
2	1	0	1	0	180.41	0.802397	0.802371	1.15581	1	0.0108551	11	0.000927392
2	1	0	0	0	184.91	0.847403	0.847442	1.75415	1	0.0173666	11	0.00148654
2	1	0	1	0	189.411	0.89241	0.892482	2.47613	1	0.0268541	11	0.00220991
2	1	0	0	0	193.911	0.937416	0.937431	3.28002	1	0.0398001	11	0.00307479
2	1	0	0	0	198.412	0.982422	0.982557	4.11661	1	0.0564205	11	0.0040448
2	1	0	1	0	202.823	0.973421	0.973465	3.53642	1	0.0743831	11	0.00344258
2	1	0	0	0	207.324	0.928415	0.928504	2.53819	1	0.0879116	11	0.00235672
2	1	0	1	0	211.824	0.883409	0.883424	1.80182	1	0.0976049	11	0.00159177
2	1	0	1	0	216.325	0.838403	0.838342	1.22967	1	0.104367	11	0.00103088
2	1	0	0	0	220.826	0.793396	0.793333	0.791609	1	0.10886	11	0.00062801
2	1	0	1	0	225.326	0.74839	0.748272	0.468357	1	0.111652	11	0.000350459
2	1	0	0	0	229.857	0.703083	0.702953	0.233349	1	0.113205	12	0.000164033
2	1	0	1	0	234.358	0.658077	0.657931	0.0854754	1	0.113883	12	5.62369e-05
2	1	0	0	0	238.888	0.612771	0.61265	0.0198962	1	0.11409	13	1.21894e-05
2	0	0	1	0	243.389	0.567765	0.567625	-0.00073274	1	0.114119	13	-4.15922e-07
2	0	0	1	0	247.89	0.522758	0.522582	-0.0104977	1	0.114086	13	-5.48592e-06
2	0	0	0	0	252.39	0.477752	0.477612	-0.0175908	1	0.114017	13	-8.40159e-06
2	0	0	1	0	256.891	0.432745	0.4327	-0.0256932	1	0.113915	13	-1.11174e-05
2	0	0	0	0	261.391	0.387739	0.387638	-0.0519295	1	0.113751	13	-2.01299e-05
2	0	0	1	0	265.922	0.342433	0.342455	-0.262827	1	0.113142	12	-9.00065e-05
2	0	0	0	0	270.423	0.297427	0.29734	-0.0840306	1	0.112327	12	-2.49857e-05
2	0	0	0	0	274.953	0.25212	0.252017	-0.0200613	1	0.112152	13	-5.05578e-06
2	0	0	1	0	279.454	0.207114	0.207082	-0.0115512	1	0.112084	13	-2.39206e-06
2	0	0	0	0	283.955	0.162108	0.162024	-0.00843369	1	0.112038	13	-1.36646e-06
2	0	0	1	0	288.455	0.117101	0.117059	-0.00678568	1	0.112003	13	-7.94326e-07
2	0	0	0	0	292.956	0.0720951	0.0720402	-0.00573322	1	0.111973	13	-4.13022e-07
2	0	0	1	0	297.456	0.0270888	0.0271124	-0.00490638	1	0.111949	13	-1.33024e-07
2	0	0	1	1	301.818	0.0165873	0.0164401	-0.00215538	2	0.111931	13	-3.54346e-08
2	0	0	0	1	306.318	0.0615936	0.0614846	-0.000728807	2	0.111926	13	-4.48104e-08
2	0	0	1	1	310.819	0.1066	0.106456	3.54862e-05	2	0.111925	13	3.77772e-09
2	0	0	0	1	315.319	0.151606	0.151546	0.000642311	2	0.111928	13	9.73397e-08
2	0	0	1	1	319.82	0.196613	0.19644	0.00134992	2	0.111933	13	2.6518e-07
2	0	0	1	1	324.321	0.241619	0.241562	0.00229088	2	0.111942	13	5.53389e-07
2	0	0	0	1	328.821	0.286625	0.286539	0.00329785	2	0.111957	13	9.44964e-07
2	0	0	1	1	333.322	0.331631	0.331617	0.00432444	2	0.111976	13	1.43406e-06
2	1	0	0	1	337.823	0.376638	0.376683	0.0057686	2	0.112001	13	2.17293e-06
2	1	0	1	1	342.323	0.421644	0.421586	0.0763961	2	0.112089	13	3.22075e-05
2	1	0	0	1	346.854	0.46695	0.466933	0.166433	2	0.112659	12	7.77131e-05
2	1	0	0	1	351.355	0.511957	0.511913	0.118302	2	0.113391	12	6.05605e-05
2	1	0	1	1	355.855	0.556963	0.556925	0.0681493	2	0.113795	12	3.79541e-05
2	1	0	0	1	360.356	0.601969	0.601977	0.0821654	2	0.114103	12	4.94617e-05
2	1	0	1	1	364.856	0.646975	0.647013	0.102371	2	0.114515	12	6.62353e-05
2	1	0	0	1	369.357	0.691982	0.69196	0.246624	2	0.115252	12	0.000170654
2	1	0	1	1	373.858	0.736988	0.736909	0.527351	2	0.116947	12	0.000388609
2	1	0	1	1	378.358	0.781994	0.782033	0.932239	2	0.120188	12	0.000729042
2	1	0	0	1	382.889	0.827301	0.82732	1.47543	2	0.125593	11	0.00122065
2	1	0	1	1	387.39	0.872307	0.872454	2.16098	2	0.133732	11	0.00188536
2	1	0	0	1	391.89	0.917313	0.917337	2.96217	2	0.145236	11	0.00271731
2	1	0	1	1	396.391	0.962319	0.962441	3.84399	2	0.160547	11	0.00369961
2	1	0	1	1	400.712	0.994424	0.994375	4.34409	2	0.178867	11	0.00431966
2	1	0	0	1	405.213	0.949418	0.949359	3.09484	2	0.195359	11	0.00293812
2	1	0	1	1	409.713	0.904411	0.904445	2.21361	2	0.207217	11	0.00200209
2	1	0	0	1	414.214	0.859405	0.859464	1.52258	2	0.21555	11	0.00130861
2	1	0	1	1	418.714	0.814399	0.814327	0.998206	2	0.221158	11	0.000812867
2	1	0	0	1	423.215	0.769393	0.769379	0.617638	2	0.224744	11	0.000475198
2	1	0	0	1	427.746	0.724086	0.724137	0.336763	2	0.226866	12	0.000243862
2	1	0	1	1	432.246	0.67908	0.679039	0.143519	2	0.227908	12	9.74549e-05
2	1	0	0	1	436.777	0.633774	0.633716	0.0404835	2	0.228286	13	2.56551e-05
2	0	0	1	1	441.278	0.588767	0.58876	0.00407356	2	0.228365	13	2.39835e-06
2	0	0	0	1	445.778	0.543761	0.543718	-0.00890298	2	0.228345	13	-4.84071e-06
2	0	0	1	1	450.279	0.498755	0.49873	-0.0168622	2	0.228281	13	-8.40968e-06
2	0	0	1	1	454.779	0.453748	0.453719	-0.0239345	2	0.228185	13	-1.08595e-05
2	0	0	0	1	459.28	0.408742	0.408751	-0.0363448	2	0.228049	13	-1.4856e-05
2	0	0	1	1	463.811	0.363436	0.363383	-0.109401	2	0.227767	12	-3.97545e-05
2	0	0	0	1	468.311	0.318429	0.318369	-0.169448	2	0.226852	12	-5.39468e-05
2	0	0	1	1	472.812	0.273423	0.273234	-0.0446618	2	0.226422	12	-1.22031e-05
2	0	0	0	1	477.343	0.228117	0.227985	-0.02223	2	0.226281	13	-5.06809e-06
2	0	0	1	1	481.843	0.18311	0.183098	-0.0134847	2	0.226201	13	-2.46901e-06
2	0	0	1	1	486.344	0.138104	0.138001	-0.0100663	2	0.226148	13	-1.38915e-06
2	0	0	0	1	490.845	0.093098	0.0930124	-0.00817345	2	0.226106	13	-7.60232e-07
2	0	0	1	1	495.345	0.0480917	0.047969	-0.00660937	2	0.226072	13	-3.17045e-07
2	0	0	0	1	499.846	0.00308541	0.00298073	-0.00577802	2	0.226044	13	-1.72227e-08
2	0	0	0	0	504.207	0.0405906	0.0404943	-0.00169895	3	0.226031	13	-6.87978e-08
2	1	0	1	0	508.708	0.0855969	0.0856683	-0.000460311	3	0.226027	13	-3.94341e-08
2	1	0	0	0	513.208	0.130603	0.13029	0.000332937	3	0.226028	13	4.33785e-08
2	1	0	1	0	517.709	0.17561	0.175479	0.00108077	3	0.226032	13	1.89653e-07
2	1	0	0	0	522.209	0.220616	0.220435	0.0019564	3	0.226039	13	4.31258e-07
2	1	0	1	0	526.71	0.265622	0.265387	0.00300272	3	0.226051	13	7.96882e-07
2	1	0	1	0	531.211	0.310629	0.310584	0.00413785	3	0.226069	13	1.28515e-06
2	1	0	0	0	535.711	0.355635	0.355554	0.00546464	3	0.226092	13	1.94298e-06
2	1	0	1	0	540.212	0.400641	0.400684	0.00884752	3	0.226124	13	3.54506e-06
2	1	0	0	0	544.743	0.445947	0.445967	0.114757	3	0.226406	12	5.11779e-05
2	1	0	1	0	549.243	0.490954	0.490868	0.180304	3	0.227141	12	8.85056e-05
2	1	0	0	0	553.744	0.53596	0.535919	0.0946266	3	0.227754	12	5.07122e-05
2	1	0	1	0	558.244	0.580966	0.580931	0.0684384	3	0.228103	12	3.97579e-05
2	1	0	1	0	562.745	0.625972	0.625922	0.0910858	3	0.228493	12	5.70126e-05
2	1	0	0	0	567.246	0.670979	0.671056	0.167149	3	0.229023	12	0.000112166
2	1	0	1	0	571.746	0.715985	0.715933	0.376703	3	0.230205	12	0.000269694
2	1	0	0	0	576.247	0.760991	0.761011	0.718053	3	0.23263	12	0.000546446
2	1	0	1	0	580.778	0.806298	0.80635	1.17836	3	0.23689	11	0.000950171
2	1	0	0	0	585.278	0.851304	0.851396	1.77215	3	0.243485	11	0.0015088
2	1	0	0	0	589.779	0.89631	0.896405	2.49087	3	0.253041	11	0.00223282
2	1	0	1	0	594.28	0.941317	0.941437	3.31132	3	0.266092	11	0.0031174
2	1	0	0	0	598.78	0.986323	0.986454	4.20045	3	0.283016	11	0.00414355
2	1	0	1	0	603.101	0.970421	0.970359	3.5378	3	0.300643	11	0.00343294
2	1	0	0	0	607.602	0.925414	0.925496	2.54779	3	0.314226	11	0.00235797
2	1	0	0	0	612.103	0.880408	0.880522	1.78601	3	0.323899	11	0.00157262
2	1	0	1	0	616.603	0.835402	0.835479	1.20335	3	0.330551	11	0.00100537
2	1	0	0	0	621.104	0.790396	0.790319	0.76879	3	0.334932	11	0.000607589
2	1	0	1	0	625.619	0.745239	0.745182	0.450675	3	0.337646	11	0.000335835
2	1	0	0	0	630.135	0.700083	0.700022	0.22238	3	0.339134	12	0.000155671
2	1	0	1	0	634.636	0.655077	0.655048	0.0784641	3	0.339771	12	5.13978e-05
2	1	0	1	0	639.166	0.60977	0.609727	0.0158445	3	0.339955	13	9.6608e-06
2	1	0	0	0	643.667	0.564764	0.564684	-0.00430309	3	0.339967	13	-2.42989e-06
2	0	0	1	0	648.168	0.519758	0.519679	-0.0142434	3	0.339919	13	-7.402e-06
2	0	0	0	0	652.668	0.474751	0.474647	-0.0213652	3	0.339833	13	-1.01409e-05
2	0	0	1	0	657.169	0.429745	0.42958	-0.029987	3	0.339714	13	-1.28818e-05
2	0	0	0	0	661.669	0.384739	0.384564	-0.0591068	3	0.339528	13	-2.27303e-05
2	0	0	1	0	666.2	0.339433	0.339302	-0.225303	3	0.338889	12	-7.64459e-05
2	0	0	1	0	670.701	0.294426	0.294323	-0.0837152	3	0.33818	12	-2.46393e-05
2	0	0	0	0	675.231	0.24912	0.248946	-0.0306226	3	0.337949	13	-7.62339e-06
2	0	0	1	0	679.732	0.204114	0.203946	-0.017882	3	0.337844	13	-3.64697e-06
2	0	0	0	0	684.233	0.159107	0.158933	-0.0126823	3	0.337775	13	-2.01564e-06
2	0	0	1	0	688.733	0.114101	0.113904	-0.010288	3	0.337723	13	-1.17185e-06
2	0	0	0	0	693.234	0.0690946	0.0689529	-0.0084202	3	0.337681	13	-5.80598e-07
2	0	0	0	0	697.735	0.0240883	0.0239254	-0.00746685	3	0.337645	13	-1.78647e-07
2	0	0	0	1	700.139	3.49817e-05	-0.000383576	-0.00650412	3	0.337627	13	2.49482e-09