File: Data/2022_01_05 CoNx Ti electrode1_02_CV_C05.mpt
EC-Lab ASCII FILE
Nb header lines : 58

Cyclic Voltammetry

Run on channel : 5 (SN 30436)
User :
CE vs. WE compliance from -10 V to 10 V
Electrode connection : standard
Potential control : Ewe
Ewe ctrl range : min = -2.50 V, max = 2.50 V
Safety Limits :
	Do not start on E overload
Acquisition started on : 01/05/2023 11:11:11.191
Technique started on : 01/05/2023 11:12:32.302
Loaded Setting File :  C:\Users\grupogalan\Documents\EC-Lab\Data\Scott\2022_01_04 NiNx Ti electrode1.mps
Saved on :
	File : 2022_01_05 CoNx Ti electrode1_02_CV_C05.mpr
	Directory : C:\Users\grupogalan\Documents\EC-Lab\Data\Scott\
	Host : 169.254.104.159
Device : VSP (SN 1176)
Address : USB
EC-Lab for windows v11.46 (software)
Internet server v11.40 (firmware)
Command interpretor v11.40 (firmware)
Electrode material :
Initial state :
Electrolyte :
Comments :
Electrode surface area : 0.000 cm²
Characteristic mass : 0.001 g
Equivalent Weight : 0.000 g/eq.
Density : 0.000 g/cm3
Volume (V) : 0.001 cm³
Cycle Definition : Charge/Discharge alternance
Ei (V)              0.000
vs.                 Eoc
dE/dt               10.000
dE/dt unit          mV/s
E1 (V)              1.000
vs.                 Ref
Step percent        50
N                   10
E range min (V)     -2.500
E range max (V)     2.500
I Range             Auto
I Range min         Unset
I Range max         Unset
I Range init        Unset
Bandwidth           5
E2 (V)              0.000
vs.                 Ref
nc cycles           2
Reverse Scan        0
Ef (V)              0.000
vs.                 Ref

mode	ox/red	error	control changes	counter inc.	time/s	control/V	Ewe/V	<I>/mA	cycle number	(Q-Qo)/C	I Range	P/W
2	0	0	1	0	81.1106	-0.274206	-0.274491	-0.019174	1	0.0000000E+000	13	5.2631e-06
2	1	0	0	0	85.5662	-0.229651	-0.229735	0.00127145	1	3.07217e-06	13	-2.92098e-07
2	0	0	1	0	90.0668	-0.184646	-0.184773	0.000873541	1	7.78331e-06	13	-1.61407e-07
2	1	0	1	0	94.5672	-0.139641	-0.139755	0.00108822	1	1.28424e-05	13	-1.52084e-07
2	0	0	0	0	99.0678	-0.0946353	-0.0947873	0.00139557	1	1.92815e-05	13	-1.32283e-07
2	0	0	0	0	103.568	-0.0496302	-0.049747	0.00164554	1	2.67975e-05	13	-8.18606e-08
2	1	0	1	0	108.069	-0.00462504	-0.00474281	0.00205574	1	3.64122e-05	13	-9.74996e-09
2	1	0	1	0	112.569	0.0403801	0.0403367	0.00203835	1	4.55472e-05	13	8.22204e-08
2	1	0	0	0	117.07	0.0853852	0.0853844	0.00271395	1	5.61907e-05	13	2.31729e-07
2	1	0	1	0	121.57	0.13039	0.130361	0.00374648	1	7.04642e-05	13	4.88395e-07
2	1	0	1	0	126.071	0.175395	0.175396	0.00957869	1	9.8491e-05	13	1.68006e-06
2	1	0	0	0	130.571	0.220401	0.220396	0.0273529	1	0.000175346	13	6.02846e-06
2	1	0	0	0	135.072	0.265406	0.265254	0.0805823	1	0.000399271	13	2.13748e-05
2	1	0	1	0	139.602	0.310711	0.310676	0.217429	1	0.00104469	12	6.75499e-05
2	1	0	1	0	144.103	0.355716	0.355667	0.425114	1	0.00247399	12	0.000151199
2	1	0	0	0	148.603	0.400721	0.400674	0.689552	1	0.00496324	12	0.000276285
2	1	0	1	0	153.104	0.445726	0.445757	1.01263	1	0.00878398	12	0.000451387
2	1	0	1	0	157.634	0.491031	0.490942	1.4096	1	0.0142431	11	0.00069203
2	1	0	0	0	162.135	0.536037	0.535945	1.86309	1	0.0215999	11	0.000998514
2	1	0	0	0	166.635	0.581042	0.580976	2.39172	1	0.0311463	11	0.00138953
2	1	0	1	0	171.136	0.626047	0.626016	3.02925	1	0.0432963	11	0.00189636
2	1	0	1	0	175.637	0.671052	0.671045	4.04685	1	0.0590026	11	0.00271562
2	1	0	0	0	180.137	0.716057	0.716037	5.89517	1	0.0810209	11	0.00422116
2	1	0	1	0	184.638	0.761062	0.761027	8.85752	1	0.113818	11	0.00674081
2	1	0	1	0	189.168	0.806367	0.806324	12.9689	1	0.162954	10	0.0104571
2	1	0	0	0	193.669	0.851373	0.851404	18.0551	1	0.232558	10	0.0153722
2	1	0	0	0	198.169	0.896378	0.896434	24.0851	1	0.32678	10	0.0215907
2	1	0	1	0	202.67	0.941383	0.941418	30.6207	1	0.449814	10	0.0288269
2	1	0	0	0	207.17	0.986388	0.986576	36.2932	1	0.600988	10	0.035806
2	1	0	0	0	211.491	0.970486	0.97056	31.0703	1	0.753008	10	0.0301556
2	1	0	1	0	215.992	0.925481	0.925552	23.2282	1	0.874001	10	0.0214989
2	1	0	1	0	220.492	0.880476	0.88068	17.0077	1	0.9642	10	0.0149783
2	1	0	0	0	224.993	0.835471	0.835553	11.4576	1	1.0279	10	0.00957345
2	1	0	1	0	229.493	0.790466	0.790378	7.10128	1	1.06935	10	0.0056127
2	1	0	1	0	234.024	0.74516	0.745133	4.06001	1	1.0942	11	0.00302524
2	1	0	0	0	238.524	0.700155	0.700136	2.02291	1	1.1075	11	0.00141631
2	1	0	0	0	243.025	0.65515	0.655067	0.872819	1	1.1137	11	0.000571755
2	1	0	1	0	247.555	0.609845	0.609811	0.361832	1	1.11631	12	0.000220649
2	1	0	0	0	252.056	0.56484	0.564794	0.16035	1	1.11741	12	9.05648e-05
2	1	0	0	0	256.556	0.519835	0.51986	0.0658009	1	1.11789	12	3.42073e-05
2	1	0	1	0	261.087	0.47453	0.474516	0.0155855	1	1.11805	13	7.3956e-06
2	0	0	1	0	265.587	0.429524	0.429529	-0.0112643	1	1.11805	13	-4.83836e-06
2	0	0	0	0	270.088	0.384519	0.384572	-0.0261884	1	1.11796	13	-1.00713e-05
2	0	0	0	0	274.588	0.339514	0.339505	-0.0332818	1	1.11782	13	-1.12993e-05
2	0	0	1	0	279.089	0.294509	0.294469	-0.0350448	1	1.11766	13	-1.03196e-05
2	0	0	0	0	283.589	0.249504	0.249387	-0.0336734	1	1.1175	13	-8.39772e-06
2	0	0	0	0	288.09	0.204499	0.204336	-0.0304022	1	1.11735	13	-6.21228e-06
2	0	0	1	0	292.59	0.159494	0.159425	-0.0259401	1	1.11722	13	-4.13549e-06
2	0	0	1	0	297.091	0.114489	0.114551	-0.0213949	1	1.11712	13	-2.45081e-06
2	0	0	0	0	301.591	0.0694834	0.0695223	-0.0175992	1	1.11703	13	-1.22354e-06
2	0	0	0	0	306.092	0.0244783	0.0244449	-0.0157091	1	1.11696	13	-3.84007e-07
2	0	0	1	1	310.493	0.0195777	0.0196468	-0.01095	2	1.11689	13	-2.15132e-07
2	0	0	0	1	314.993	0.0645828	0.0645969	-0.0065324	2	1.11686	13	-4.21973e-07
2	0	0	0	1	319.494	0.109588	0.109633	-0.00326783	2	1.11683	13	-3.58261e-07
2	1	0	1	1	323.994	0.154593	0.154555	0.00269175	2	1.11683	13	4.16024e-07
2	1	0	0	1	328.495	0.199598	0.199388	0.0166963	2	1.11687	13	3.32904e-06
2	1	0	0	1	332.995	0.244603	0.244676	0.0296314	2	1.11698	13	7.2501e-06
2	1	0	1	1	337.496	0.289608	0.289631	0.0396113	2	1.11714	13	1.14726e-05
2	1	0	1	1	341.996	0.334614	0.334659	0.0587985	2	1.11736	13	1.96775e-05
2	1	0	0	1	346.497	0.379619	0.379502	0.0859038	2	1.11768	13	3.26007e-05
2	1	0	0	1	351.027	0.424924	0.42473	0.123594	2	1.11816	12	5.24943e-05
2	1	0	1	1	355.528	0.469929	0.469861	0.174488	2	1.11883	12	8.19849e-05
2	1	0	0	1	360.029	0.514934	0.514883	0.243825	2	1.11977	12	0.000125541
2	1	0	0	1	364.529	0.559939	0.559963	0.339412	2	1.12108	12	0.000190058
2	1	0	1	1	369.03	0.604944	0.60485	0.499579	2	1.12293	12	0.00030217
2	1	0	1	1	373.53	0.64995	0.64978	0.936949	2	1.126	12	0.000608811
2	1	0	0	1	378.061	0.695255	0.695157	2.04767	2	1.13245	11	0.00142345
2	1	0	0	1	382.561	0.74026	0.74026	4.1228	2	1.14593	11	0.00305195
2	1	0	1	1	387.062	0.785265	0.785287	7.47552	2	1.17153	11	0.00587043
2	1	0	0	1	391.592	0.83057	0.830739	12.2558	2	1.21571	10	0.0101814
2	1	0	0	1	396.093	0.875575	0.875563	18.3761	2	1.28395	10	0.0160894
2	1	0	1	1	400.593	0.92058	0.920505	25.6619	2	1.38228	10	0.0236219
2	1	0	1	1	405.094	0.965585	0.965607	33.2463	2	1.51499	10	0.0321028
2	1	0	0	1	409.495	0.990488	0.990487	36.7698	2	1.67457	10	0.03642
2	1	0	1	1	413.995	0.945483	0.945495	27.6234	2	1.8186	10	0.0261178
2	1	0	1	1	418.496	0.900478	0.900587	20.2123	2	1.92692	10	0.0182029
2	1	0	0	1	422.996	0.855473	0.855745	13.8308	2	2.00336	10	0.0118356
2	1	0	1	1	427.497	0.810468	0.810386	8.61714	2	2.05348	10	0.00698321
2	1	0	1	1	431.997	0.765463	0.76546	4.92983	2	2.08343	10	0.00377358
2	1	0	0	1	436.528	0.720158	0.720207	2.46247	2	2.09974	11	0.00177349
2	1	0	0	1	441.028	0.675152	0.675113	1.02934	2	2.10725	11	0.000694921
2	1	0	1	1	445.559	0.629847	0.629817	0.348997	2	2.11012	12	0.000219804
2	1	0	1	1	450.059	0.584842	0.584703	0.0891826	2	2.11099	12	5.21453e-05
2	1	0	0	1	454.59	0.539537	0.539599	-0.00838351	2	2.11113	13	-4.52373e-06
2	0	0	1	1	459.09	0.494532	0.494607	-0.0475743	2	2.11099	13	-2.35306e-05
2	0	0	1	1	463.591	0.449527	0.449621	-0.059378	2	2.11074	13	-2.66976e-05
2	0	0	0	1	468.091	0.404522	0.4045	-0.0600731	2	2.11046	13	-2.42995e-05
2	0	0	0	1	472.592	0.359516	0.359573	-0.0572955	2	2.11019	13	-2.06019e-05
2	0	0	1	1	477.092	0.314511	0.314494	-0.0537469	2	2.10993	13	-1.69031e-05
2	0	0	1	1	481.593	0.269506	0.269397	-0.0495188	2	2.1097	13	-1.33402e-05
2	0	0	0	1	486.093	0.224501	0.224438	-0.0448679	2	2.10948	13	-1.00701e-05
2	0	0	1	1	490.594	0.179496	0.179469	-0.0398199	2	2.10929	13	-7.14644e-06
2	0	0	1	1	495.094	0.134491	0.134444	-0.0336592	2	2.10912	13	-4.52527e-06
2	0	0	0	1	499.595	0.0894857	0.0895128	-0.0270116	2	2.10898	13	-2.41788e-06
2	0	0	0	1	504.095	0.0444806	0.0445448	-0.0232019	2	2.10887	13	-1.03352e-06
2	0	0	1	0	508.541	2.54892e-05	4.25712e-05	-0.0210229	2	2.10877	13	-8.9497e-10
2	0	0	0	0	512.997	0.0445806	0.0444673	-0.0126272	3	2.1087	13	-5.61499e-07
2	0	0	0	0	517.497	0.0895857	0.0895097	-0.00817623	3	2.10866	13	-7.31852e-07
2	0	0	1	0	521.998	0.134591	0.134506	-0.0030384	3	2.10863	13	-4.08685e-07
2	1	0	1	0	526.498	0.179596	0.179595	0.00903197	3	2.10864	13	1.6221e-06
2	1	0	0	0	530.999	0.224601	0.224452	0.0240569	3	2.10872	13	5.39963e-06
2	1	0	1	0	535.5	0.269606	0.269531	0.0291612	3	2.10884	13	7.85984e-06
2	1	0	1	0	540	0.314611	0.314473	0.0413945	3	2.109	13	1.30175e-05
2	1	0	0	0	544.501	0.359616	0.359608	0.0589615	3	2.10923	13	2.1203e-05
2	1	0	0	0	549.001	0.404622	0.404628	0.0823806	3	2.10955	13	3.33335e-05
2	1	0	1	0	553.532	0.449927	0.449856	0.11368	3	2.10999	12	5.11398e-05
2	1	0	1	0	558.032	0.494932	0.49498	0.153062	3	2.1106	12	7.57625e-05
2	1	0	0	0	562.533	0.539937	0.539905	0.202187	3	2.1114	12	0.000109162
2	1	0	1	0	567.033	0.584942	0.584829	0.272815	3	2.11246	12	0.00015955
2	1	0	1	0	571.534	0.629947	0.629876	0.473551	3	2.11405	12	0.000298278
2	1	0	0	0	576.064	0.675252	0.675402	1.1437	3	2.11747	11	0.000772455
2	1	0	0	0	580.565	0.720258	0.72024	2.63239	3	2.12563	11	0.00189596
2	1	0	1	0	585.065	0.765263	0.765221	5.21409	3	2.14285	11	0.00398993
2	1	0	1	0	589.566	0.810268	0.810219	9.15225	3	2.17465	11	0.00741532
2	1	0	0	0	594.096	0.855573	0.85559	14.4259	3	2.22752	10	0.0123426
2	1	0	1	0	598.597	0.900578	0.900609	20.8965	3	2.30654	10	0.0188196
2	1	0	1	0	603.097	0.945583	0.945567	28.0704	3	2.41653	10	0.0265425
2	1	0	0	0	607.598	0.990588	0.990605	35.7763	3	2.56093	10	0.0354402
2	1	0	1	0	611.999	0.965486	0.965498	30.7684	3	2.71337	10	0.0297068
2	1	0	1	0	616.499	0.92048	0.920524	22.7339	3	2.83319	10	0.0209271
2	1	0	0	0	621	0.875475	0.875508	15.8314	3	2.91957	10	0.0138605
2	1	0	0	0	625.5	0.83047	0.830538	10.2541	3	2.97789	10	0.00851643
2	1	0	1	0	630.001	0.785465	0.785492	6.04674	3	3.01401	10	0.00474966
2	1	0	0	0	634.531	0.74016	0.740192	3.17204	3	3.03439	11	0.00234792
2	1	0	0	0	639.032	0.695155	0.695173	1.42713	3	3.04436	11	0.000992103
2	1	0	1	0	643.532	0.65015	0.650155	0.503022	3	3.04843	11	0.000327042
2	1	0	1	0	648.063	0.604844	0.604856	0.128087	3	3.0497	12	7.7474e-05
2	0	0	0	0	652.593	0.559539	0.55955	-0.00248058	3	3.04993	13	-1.38801e-06
2	0	0	0	0	657.094	0.514534	0.514476	-0.0529832	3	3.04979	13	-2.72586e-05
2	0	0	1	0	661.594	0.469529	0.469587	-0.0708108	3	3.04949	13	-3.32518e-05
2	0	0	0	0	666.095	0.424524	0.424532	-0.0719716	3	3.04916	13	-3.05542e-05
2	0	0	0	0	670.595	0.379519	0.379478	-0.0673802	3	3.04884	13	-2.55693e-05
2	0	0	1	0	675.096	0.334514	0.334518	-0.0617525	3	3.04854	13	-2.06573e-05
2	0	0	1	0	679.596	0.289508	0.289449	-0.0562888	3	3.04827	13	-1.62927e-05
2	0	0	0	0	684.097	0.244503	0.244447	-0.0509585	3	3.04803	13	-1.24566e-05
2	0	0	0	0	688.597	0.199498	0.199277	-0.0458374	3	3.04781	13	-9.13434e-06
2	0	0	1	0	693.098	0.154493	0.154337	-0.0402419	3	3.04761	13	-6.2108e-06
2	0	0	0	0	697.599	0.109488	0.109415	-0.0331519	3	3.04745	13	-3.62732e-06
2	0	0	0	0	702.099	0.0644828	0.0645852	-0.0275196	3	3.04731	13	-1.77736e-06
2	0	0	1	0	706.6	0.0194777	0.0193974	-0.0246014	3	3.04719	13	-4.77203e-07
2	0	0	0	0	708.542	2.54892e-05	0.000271811	-0.0244068	3	3.04715	13	-6.63403e-09