File: Data/2022_01_05 CoNx Ti electrode1_04_CP_C05.mpt
EC-Lab ASCII FILE
Nb header lines : 54

Chronopotentiometry

Run on channel : 5 (SN 30436)
User :
CE vs. WE compliance from -10 V to 10 V
Electrode connection : standard
Potential control : Ewe
Ewe ctrl range : min = -2.50 V, max = 2.50 V
Safety Limits :
	Do not start on E overload
Acquisition started on : 01/05/2023 11:11:11.191
Technique started on : 01/05/2023 11:24:36.077
Loaded Setting File :  C:\Users\grupogalan\Documents\EC-Lab\Data\Scott\2022_01_04 NiNx Ti electrode1.mps
Saved on :
	File : 2022_01_05 CoNx Ti electrode1_04_CP_C05.mpr
	Directory : C:\Users\grupogalan\Documents\EC-Lab\Data\Scott\
	Host : 169.254.104.159
Device : VSP (SN 1176)
Address : USB
EC-Lab for windows v11.46 (software)
Internet server v11.40 (firmware)
Command interpretor v11.40 (firmware)
Electrode material :
Initial state :
Electrolyte :
Comments :
Electrode surface area : 0.000 cm²
Characteristic mass : 0.001 g
Equivalent Weight : 0.000 g/eq.
Density : 0.000 g/cm3
Volume (V) : 0.001 cm³
Cycle Definition : Charge/Discharge alternance
Ns                  0                   1                   2                   3                   4                   5                   6                   7                   8                   9                   10                  11                  12
Is                  10.000              18.000              32.000              56.000              100.000             178.000             316.000             562.000             1.000               1.778               3.162               5.623               10.000
unit Is             µA                  µA                  µA                  µA                  µA                  µA                  µA                  µA                  mA                  mA                  mA                  mA                  mA
vs.                 <None>              <None>              <None>              <None>              <None>              <None>              <None>              <None>              <None>              <None>              <None>              <None>              <None>
ts (h:m:s)          0:03:0.0000         0:03:0.0000         0:03:0.0000         0:03:0.0000         0:03:0.0000         0:03:0.0000         0:03:0.0000         0:03:0.0000         0:03:0.0000         0:03:0.0000         0:03:0.0000         0:03:0.0000         0:03:0.0000
EM (V)              pass                pass                pass                pass                pass                pass                pass                pass                pass                pass                pass                pass                pass
dQM                 500.000             900.000             1.600               2.800               5.000               8.900               15.800              28.100              50.000              88.900              158.100             281.150             500.000
unit dQM            nA.h                nA.h                µA.h                µA.h                µA.h                µA.h                µA.h                µA.h                µA.h                µA.h                µA.h                µA.h                µA.h
record              <Ewe>               <Ewe>               <Ewe>               <Ewe>               <Ewe>               <Ewe>               <Ewe>               <Ewe>               <Ewe>               <Ewe>               <Ewe>               <Ewe>               <Ewe>
dEs (mV)            0.00                0.00                0.00                0.00                0.00                0.00                0.00                0.00                0.00                0.00                0.00                0.00                0.00
dts (s)             1.0000              1.0000              1.0000              1.0000              1.0000              1.0000              1.0000              1.0000              1.0000              1.0000              1.0000              1.0000              1.0000
E range min (V)     -2.500              -2.500              -2.500              -2.500              -2.500              -2.500              -2.500              -2.500              -2.500              -2.500              -2.500              -2.500              -2.500
E range max (V)     2.500               2.500               2.500               2.500               2.500               2.500               2.500               2.500               2.500               2.500               2.500               2.500               2.500
I Range             10 mA               10 mA               10 mA               10 mA               10 mA               10 mA               10 mA               10 mA               10 mA               10 mA               10 mA               10 mA               10 mA
Bandwidth           5                   5                   5                   5                   5                   5                   5                   5                   5                   5                   5                   5                   5
goto Ns'            0                   0                   0                   0                   0                   0                   0                   0                   0                   0                   0                   0                   0
nc cycles           0                   0                   0                   0                   0                   0                   0                   0                   0                   0                   0                   0                   0

mode	ox/red	error	control changes	Ns changes	counter inc.	Ns	time/s	control/mA	<Ewe>/V	I/mA	dQ/C	(Q-Qo)/C	half cycle	Q charge/discharge/mA.h	I Range	Energy charge/W.h	Energy discharge/W.h	Capacitance charge/µF	Capacitance discharge/µF	Q discharge/mA.h	Q charge/mA.h	Capacity/mA.h	Efficiency/%	cycle number	P/W
1	1	0	1	0	0	0	804.886	0.01	0.217718	0.00954851	9.25577e-06	9.25577e-06	0	2.57105e-06	11	5.59764e-10	0.000000000000000E+000	0.000000000000000E+000	0.000000000000000E+000	0.000000000000000E+000	2.57105e-06	2.57105e-06	0.0000000E+000	0.000000000000000E+000	2.07888e-06
1	1	0	1	0	0	0	861.886	0.01	0.291617	0.00948488	0.000559133	0.000559133	0	0.000155315	11	4.2332e-08	0.000000000000000E+000	7566.14	0.000000000000000E+000	0.000000000000000E+000	0.000155315	0.000155315	0.0000000E+000	0.000000000000000E+000	2.76596e-06
1	1	0	1	0	0	0	918.886	0.01	0.294711	0.00923037	0.00110423	0.00110423	0	0.000306731	11	8.69944e-08	0.000000000000000E+000	14342	0.000000000000000E+000	0.000000000000000E+000	0.000306731	0.000306731	0.0000000E+000	0.000000000000000E+000	2.72029e-06
1	1	0	1	0	0	0	975.886	0.01	0.280245	0.00961214	0.0016483	0.0016483	0	0.000457861	11	1.30606e-07	0.000000000000000E+000	26361.5	0.000000000000000E+000	0.000000000000000E+000	0.000457861	0.000457861	0.0000000E+000	0.000000000000000E+000	2.69375e-06
1	1	0	0	0	0	1	1031.94	0.018	0.294563	0.0165476	0.00080611	0.00253119	0	0.000703107	11	2.02665e-07	0.000000000000000E+000	32939	0.000000000000000E+000	0.000000000000000E+000	0.000703107	0.000703107	0.0000000E+000	0.000000000000000E+000	4.8743e-06
1	1	0	0	0	0	1	1088.94	0.018	0.272534	0.016993	0.0017604	0.00348548	0	0.000968189	11	2.78089e-07	0.000000000000000E+000	63585.3	0.000000000000000E+000	0.000000000000000E+000	0.000968189	0.000968189	0.0000000E+000	0.000000000000000E+000	4.63116e-06
1	1	0	0	0	0	1	1145.94	0.018	0.239356	0.016993	0.00271467	0.00443975	0	0.00123326	11	3.46073e-07	0.000000000000000E+000	205188	0.000000000000000E+000	0.000000000000000E+000	0.00123326	0.00123326	0.0000000E+000	0.000000000000000E+000	4.06736e-06
1	1	0	1	0	0	2	1201.94	0.032	0.2646	0.0310547	0.00117478	0.00591575	0	0.00164326	11	4.50442e-07	0.000000000000000E+000	126183	0.000000000000000E+000	0.000000000000000E+000	0.00164326	0.00164326	0.0000000E+000	0.000000000000000E+000	8.21709e-06
1	1	0	1	0	0	2	1258.94	0.032	0.257272	0.0307366	0.00293581	0.00767678	0	0.00213244	11	5.78663e-07	0.000000000000000E+000	194084	0.000000000000000E+000	0.000000000000000E+000	0.00213244	0.00213244	0.0000000E+000	0.000000000000000E+000	7.90767e-06
1	1	0	1	0	0	2	1315.94	0.032	0.240577	0.0308639	0.00469937	0.00944034	0	0.00262232	11	7.00776e-07	0.000000000000000E+000	412986	0.000000000000000E+000	0.000000000000000E+000	0.00262232	0.00262232	0.0000000E+000	0.000000000000000E+000	7.42513e-06
1	1	0	0	0	0	3	1371.94	0.056	0.290151	0.0562514	0.0015468	0.0118548	0	0.00329299	11	8.76681e-07	0.000000000000000E+000	163665	0.000000000000000E+000	0.000000000000000E+000	0.00329299	0.00329299	0.0000000E+000	0.000000000000000E+000	1.63214e-05
1	1	0	0	0	0	3	1428.94	0.056	0.31519	0.055297	0.00469356	0.0150015	0	0.00416709	11	1.14302e-06	0.000000000000000E+000	153906	0.000000000000000E+000	0.000000000000000E+000	0.00416709	0.00416709	0.0000000E+000	0.000000000000000E+000	1.74291e-05
1	1	0	0	0	0	3	1485.94	0.056	0.326042	0.0557424	0.00783791	0.0181459	0	0.00504052	11	1.42374e-06	0.000000000000000E+000	167515	0.000000000000000E+000	0.000000000000000E+000	0.00504052	0.00504052	0.0000000E+000	0.000000000000000E+000	1.81743e-05
1	1	0	1	0	0	4	1541.94	0.1	0.397611	0.0990093	0.00177787	0.0220192	0	0.00611644	11	1.80337e-06	0.000000000000000E+000	122401	0.000000000000000E+000	0.000000000000000E+000	0.00611644	0.00611644	0.0000000E+000	0.000000000000000E+000	3.93672e-05
1	1	0	1	0	0	4	1598.94	0.1	0.451747	0.0993911	0.00740713	0.0276484	0	0.00768012	11	2.47377e-06	0.000000000000000E+000	118141	0.000000000000000E+000	0.000000000000000E+000	0.00768012	0.00768012	0.0000000E+000	0.000000000000000E+000	4.48996e-05
1	1	0	1	0	0	4	1655.94	0.1	0.480313	0.0988821	0.0130371	0.0332784	0	0.009244	11	3.20462e-06	0.000000000000000E+000	126729	0.000000000000000E+000	0.000000000000000E+000	0.009244	0.009244	0.0000000E+000	0.000000000000000E+000	4.74944e-05
1	1	0	0	0	0	5	1711.94	0.178	0.54763	0.177653	0.00141804	0.0394383	0	0.0109551	11	4.05984e-06	0.000000000000000E+000	119542	0.000000000000000E+000	0.000000000000000E+000	0.0109551	0.0109551	0.0000000E+000	0.000000000000000E+000	9.72883e-05
1	1	0	0	0	0	5	1768.94	0.178	0.589096	0.177335	0.0115215	0.0495417	0	0.0137616	11	5.67824e-06	0.000000000000000E+000	133400	0.000000000000000E+000	0.000000000000000E+000	0.0137616	0.0137616	0.0000000E+000	0.000000000000000E+000	0.000104467
1	1	0	0	0	0	5	1825.94	0.178	0.594655	0.177272	0.0216269	0.0596471	0	0.0165686	11	7.3415e-06	0.000000000000000E+000	158242	0.000000000000000E+000	0.000000000000000E+000	0.0165686	0.0165686	0.0000000E+000	0.000000000000000E+000	0.000105416
1	1	0	0	0	0	5	1882.94	0.178	0.596733	0.177526	0.0317324	0.0697527	0	0.0193757	11	9.01397e-06	0.000000000000000E+000	184037	0.000000000000000E+000	0.000000000000000E+000	0.0193757	0.0193757	0.0000000E+000	0.000000000000000E+000	0.000105936
1	1	0	1	0	0	6	1938.94	0.316	0.624548	0.314644	0.0173167	0.0872467	0	0.0242352	11	1.20427e-05	0.000000000000000E+000	214455	0.000000000000000E+000	0.000000000000000E+000	0.0242352	0.0242352	0.0000000E+000	0.000000000000000E+000	0.00019651
1	1	0	1	0	0	6	1995.94	0.316	0.625078	0.315535	0.0352635	0.105193	0	0.0292204	11	1.51576e-05	0.000000000000000E+000	258232	0.000000000000000E+000	0.000000000000000E+000	0.0292204	0.0292204	0.0000000E+000	0.000000000000000E+000	0.000197234
1	1	0	1	0	0	6	2052.94	0.316	0.625413	0.313881	0.0532099	0.12314	0	0.0342055	11	1.82746e-05	0.000000000000000E+000	302040	0.000000000000000E+000	0.000000000000000E+000	0.0342055	0.0342055	0.0000000E+000	0.000000000000000E+000	0.000196305
1	1	0	0	0	0	7	2108.94	0.562	0.648902	0.560884	0.0252394	0.151843	0	0.0421785	11	2.34233e-05	0.000000000000000E+000	352153	0.000000000000000E+000	0.000000000000000E+000	0.0421785	0.0421785	0.0000000E+000	0.000000000000000E+000	0.000363959
1	1	0	0	0	0	7	2165.94	0.562	0.649123	0.561457	0.0572115	0.183815	0	0.0510597	11	2.91875e-05	0.000000000000000E+000	426084	0.000000000000000E+000	0.000000000000000E+000	0.0510597	0.0510597	0.0000000E+000	0.000000000000000E+000	0.000364455
1	1	0	0	0	0	7	2222.94	0.562	0.649116	0.561266	0.0891836	0.215787	0	0.0599408	11	3.49523e-05	0.000000000000000E+000	500204	0.000000000000000E+000	0.000000000000000E+000	0.0599408	0.0599408	0.0000000E+000	0.000000000000000E+000	0.000364327
1	1	0	1	0	0	8	2278.94	1	0.673431	0.99928	0.0349726	0.262539	0	0.0729274	11	4.36168e-05	0.000000000000000E+000	576105	0.000000000000000E+000	0.000000000000000E+000	0.0729274	0.0729274	0.0000000E+000	0.000000000000000E+000	0.000672947
1	1	0	1	0	0	8	2335.94	1	0.673492	0.999599	0.0919285	0.319494	0	0.0887485	11	5.42717e-05	0.000000000000000E+000	700994	0.000000000000000E+000	0.000000000000000E+000	0.0887485	0.0887485	0.0000000E+000	0.000000000000000E+000	0.000673221
1	1	0	1	0	0	8	2392.94	1	0.673492	0.999344	0.148885	0.376451	0	0.10457	11	6.49269e-05	0.000000000000000E+000	825960	0.000000000000000E+000	0.000000000000000E+000	0.10457	0.10457	0.0000000E+000	0.000000000000000E+000	0.00067305
1	1	0	0	0	0	9	2448.94	1.778	0.70074	1.77713	0.0444184	0.451845	0	0.125513	11	7.93669e-05	0.000000000000000E+000	935455	0.000000000000000E+000	0.000000000000000E+000	0.125513	0.125513	0.0000000E+000	0.000000000000000E+000	0.00124531
1	1	0	0	0	0	9	2505.94	1.778	0.700985	1.77681	0.145693	0.55312	0	0.153644	11	9.90827e-05	0.000000000000000E+000	1.14454e+06	0.000000000000000E+000	0.000000000000000E+000	0.153644	0.153644	0.0000000E+000	0.000000000000000E+000	0.00124552
1	1	0	0	0	0	9	2562.94	1.778	0.701101	1.77637	0.246967	0.654394	0	0.181776	11	0.000118804	0.000000000000000E+000	1.35378e+06	0.000000000000000E+000	0.000000000000000E+000	0.181776	0.181776	0.0000000E+000	0.000000000000000E+000	0.00124541
1	1	0	1	0	0	10	2618.94	3.162	0.732872	3.16104	0.0474115	0.774651	0	0.215181	11	0.000142641	0.000000000000000E+000	1.50373e+06	0.000000000000000E+000	0.000000000000000E+000	0.215181	0.215181	0.0000000E+000	0.000000000000000E+000	0.00231664
1	1	0	1	0	0	10	2675.94	3.162	0.733653	3.16142	0.227575	0.954815	0	0.265226	11	0.000179341	0.000000000000000E+000	1.85065e+06	0.000000000000000E+000	0.000000000000000E+000	0.265226	0.265226	0.0000000E+000	0.000000000000000E+000	0.00231938
1	1	0	1	0	0	10	2732.94	3.162	0.734201	3.1611	0.407737	1.13498	0	0.315272	11	0.00021607	0.000000000000000E+000	2.19751e+06	0.000000000000000E+000	0.000000000000000E+000	0.315272	0.315272	0.0000000E+000	0.000000000000000E+000	0.00232088
1	1	0	0	0	0	11	2788.94	5.623	0.771346	5.62127	0.0281055	1.32428	0	0.367856	11	0.000254977	0.000000000000000E+000	2.39201e+06	0.000000000000000E+000	0.000000000000000E+000	0.367856	0.367856	0.0000000E+000	0.000000000000000E+000	0.00433594
1	1	0	0	0	0	11	2845.94	5.623	0.772786	5.62083	0.348515	1.64469	0	0.456859	11	0.000323708	0.000000000000000E+000	2.96305e+06	0.000000000000000E+000	0.000000000000000E+000	0.456859	0.456859	0.0000000E+000	0.000000000000000E+000	0.0043437
1	1	0	0	0	0	11	2902.94	5.623	0.774188	5.62096	0.668924	1.9651	0	0.545861	11	0.000392554	0.000000000000000E+000	3.53137e+06	0.000000000000000E+000	0.000000000000000E+000	0.545861	0.545861	0.0000000E+000	0.000000000000000E+000	0.00435168
1	1	0	0	0	0	11	2959.94	5.623	0.774696	5.62191	0.989332	2.28551	0	0.634864	11	0.000461474	0.000000000000000E+000	4.10341e+06	0.000000000000000E+000	0.000000000000000E+000	0.634864	0.634864	0.0000000E+000	0.000000000000000E+000	0.00435527
1	1	0	1	0	0	12	3015.94	10	0.818828	9.99843	0.519946	2.82794	0	0.785539	11	0.000584497	0.000000000000000E+000	4.70454e+06	0.000000000000000E+000	0.000000000000000E+000	0.785539	0.785539	0.0000000E+000	0.000000000000000E+000	0.00818699
1	1	0	1	0	0	12	3072.94	10	0.82036	9.99913	1.08989	3.39788	0	0.943856	11	0.000714259	0.000000000000000E+000	5.63831e+06	0.000000000000000E+000	0.000000000000000E+000	0.943856	0.943856	0.0000000E+000	0.000000000000000E+000	0.00820289
1	1	0	1	0	0	12	3129.94	10	0.821297	9.99862	1.65983	3.96782	0	1.10217	11	0.000844189	0.000000000000000E+000	6.57383e+06	0.000000000000000E+000	0.000000000000000E+000	1.10217	1.10217	0.0000000E+000	0.000000000000000E+000	0.00821183
1	1	0	1	0	0	12	3143.94	10	0.821007	9.99875	1.79982	4.10781	0	1.14106	11	0.000876119	0.000000000000000E+000	6.80903e+06	0.000000000000000E+000	0.000000000000000E+000	1.14106	1.14106	0.0000000E+000	0.000000000000000E+000	0.00820904