File: Data/2022_01_04 NiNx Ti electrode1 CV post tafel, bulk_03_CP_C05.mpt
EC-Lab ASCII FILE
Nb header lines : 53

Chronopotentiometry

Run on channel : 5 (SN 30436)
User :
CE vs. WE compliance from -10 V to 10 V
Electrode connection : standard
Potential control : Ewe
Ewe ctrl range : min = -2.50 V, max = 2.50 V
Safety Limits :
	Do not start on E overload
Acquisition started on : 01/04/2023 13:13:31.069
Technique started on : 01/04/2023 13:23:31.181
Loaded Setting File :  C:\Users\grupogalan\Documents\EC-Lab\Data\Scott\2022_01_04 NiNx Ti electrode1.mps
Saved on :
	File : 2022_01_04 NiNx Ti electrode1 CV post tafel, bulk_03_CP_C05.mpr
	Directory : C:\Users\grupogalan\Documents\EC-Lab\Data\Scott\
	Host : 169.254.104.159
Device : VSP (SN 1176)
Address : USB
EC-Lab for windows v11.46 (software)
Internet server v11.40 (firmware)
Command interpretor v11.40 (firmware)
Electrode material :
Initial state :
Electrolyte :
Comments :
Electrode surface area : 0.000 cm²
Characteristic mass : 0.001 g
Equivalent Weight : 0.000 g/eq.
Density : 0.000 g/cm3
Volume (V) : 0.001 cm³
Cycle Definition : Charge/Discharge alternance
Is                  10.000
unit Is             mA
vs.                 <None>
ts (h:m:s)          2:00:0.0000
EM (V)              pass
dQM                 20.000
unit dQM            mA.h
record              <Ewe>
dEs (mV)            0.00
dts (s)             1.0000
E range min (V)     -2.500
E range max (V)     2.500
I Range             10 mA
Bandwidth           5
goto Ns'            0
nc cycles           0

mode	ox/red	error	control changes	Ns changes	counter inc.	Ns	time/s	control/mA	<Ewe>/V	I/mA	dQ/C	(Q-Qo)/C	half cycle	Q charge/discharge/mA.h	I Range	Energy charge/W.h	Energy discharge/W.h	Capacitance charge/µF	Capacitance discharge/µF	Q discharge/mA.h	Q charge/mA.h	Capacity/mA.h	Efficiency/%	cycle number	P/W
1	1	0	1	0	0	0	600.112	10	1.13333	9.99881	0.00947512	0.00947512	0	0.00263198	11	2.98289e-06	0.000000000000000E+000	0.000000000000000E+000	0.000000000000000E+000	0.000000000000000E+000	0.00263198	0.00263198	0.0000000E+000	0.000000000000000E+000	0.0113319
1	1	0	1	0	0	0	762.112	10	1.25952	9.99951	1.62933	1.62933	0	0.452593	11	0.000565636	0.000000000000000E+000	1.29111e+07	0.000000000000000E+000	0.000000000000000E+000	0.452593	0.452593	0.0000000E+000	0.000000000000000E+000	0.0125946
1	1	0	1	0	0	0	924.112	10	1.26389	9.99868	3.24919	3.24919	0	0.902554	11	0.00113393	0.000000000000000E+000	2.48866e+07	0.000000000000000E+000	0.000000000000000E+000	0.902554	0.902554	0.0000000E+000	0.000000000000000E+000	0.0126372
1	1	0	1	0	0	0	1086.11	10	1.26321	9.99945	4.86906	4.86906	0	1.35252	11	0.00170251	0.000000000000000E+000	3.74871e+07	0.000000000000000E+000	0.000000000000000E+000	1.35252	1.35252	0.0000000E+000	0.000000000000000E+000	0.0126314
1	1	0	1	0	0	0	1248.11	10	1.26165	9.99862	6.48892	6.48892	0	1.80248	11	0.00227064	0.000000000000000E+000	5.05677e+07	0.000000000000000E+000	0.000000000000000E+000	1.80248	1.80248	0.0000000E+000	0.000000000000000E+000	0.0126147
1	1	0	1	0	0	0	1410.11	10	1.2613	9.99945	8.10878	8.10878	0	2.25244	11	0.00283811	0.000000000000000E+000	6.33627e+07	0.000000000000000E+000	0.000000000000000E+000	2.25244	2.25244	0.0000000E+000	0.000000000000000E+000	0.0126123
1	1	0	1	0	0	0	1572.11	10	1.25919	9.99836	9.72865	9.72865	0	2.7024	11	0.0034051	0.000000000000000E+000	7.72954e+07	0.000000000000000E+000	0.000000000000000E+000	2.7024	2.7024	0.0000000E+000	0.000000000000000E+000	0.0125898
1	1	0	1	0	0	0	1734.11	10	1.25723	9.99906	11.3485	11.3485	0	3.15237	11	0.00397142	0.000000000000000E+000	9.15902e+07	0.000000000000000E+000	0.000000000000000E+000	3.15237	3.15237	0.0000000E+000	0.000000000000000E+000	0.0125711
1	1	0	1	0	0	0	1896.11	10	1.2567	9.99894	12.9684	12.9684	0	3.60234	11	0.00453712	0.000000000000000E+000	1.05119e+08	0.000000000000000E+000	0.000000000000000E+000	3.60234	3.60234	0.0000000E+000	0.000000000000000E+000	0.0125656
1	1	0	1	0	0	0	2058.11	10	1.25695	9.99868	14.5883	14.5883	0	4.05231	11	0.00510245	0.000000000000000E+000	1.18009e+08	0.000000000000000E+000	0.000000000000000E+000	4.05231	4.05231	0.0000000E+000	0.000000000000000E+000	0.0125678
1	1	0	1	0	0	0	2220.11	10	1.25551	9.99919	16.2082	16.2082	0	4.50227	11	0.00566734	0.000000000000000E+000	1.32656e+08	0.000000000000000E+000	0.000000000000000E+000	4.50227	4.50227	0.0000000E+000	0.000000000000000E+000	0.0125541
1	1	0	1	0	0	0	2382.11	10	1.25456	9.999	17.828	17.828	0	4.95223	11	0.00623199	0.000000000000000E+000	1.47051e+08	0.000000000000000E+000	0.000000000000000E+000	4.95223	4.95223	0.0000000E+000	0.000000000000000E+000	0.0125444
1	1	0	1	0	0	0	2544.11	10	1.25368	9.99875	19.4479	19.4479	0	5.40219	11	0.0067964	0.000000000000000E+000	1.61592e+08	0.000000000000000E+000	0.000000000000000E+000	5.40219	5.40219	0.0000000E+000	0.000000000000000E+000	0.0125352
1	1	0	1	0	0	0	2706.11	10	1.25488	9.99875	21.0677	21.0677	0	5.85215	11	0.00736088	0.000000000000000E+000	1.73325e+08	0.000000000000000E+000	0.000000000000000E+000	5.85215	5.85215	0.0000000E+000	0.000000000000000E+000	0.0125472
1	1	0	1	0	0	0	2868.11	10	1.25308	10	22.6876	22.6876	0	6.3021	11	0.00792504	0.000000000000000E+000	1.89457e+08	0.000000000000000E+000	0.000000000000000E+000	6.3021	6.3021	0.0000000E+000	0.000000000000000E+000	0.0125308
1	1	0	1	0	0	0	3030.11	10	1.25303	9.99919	24.3074	24.3074	0	6.75206	11	0.0084889	0.000000000000000E+000	2.03062e+08	0.000000000000000E+000	0.000000000000000E+000	6.75206	6.75206	0.0000000E+000	0.000000000000000E+000	0.0125293
1	1	0	1	0	0	0	3192.11	10	1.25299	9.99919	25.9273	25.9273	0	7.20202	11	0.0090527	0.000000000000000E+000	2.1667e+08	0.000000000000000E+000	0.000000000000000E+000	7.20202	7.20202	0.0000000E+000	0.000000000000000E+000	0.0125289
1	1	0	1	0	0	0	3354.11	10	1.25307	9.99849	27.5471	27.5471	0	7.65198	11	0.0096164	0.000000000000000E+000	2.30045e+08	0.000000000000000E+000	0.000000000000000E+000	7.65198	7.65198	0.0000000E+000	0.000000000000000E+000	0.0125288
1	1	0	1	0	0	0	3516.11	10	1.2523	9.99919	29.167	29.167	0	8.10194	11	0.01018	0.000000000000000E+000	2.45164e+08	0.000000000000000E+000	0.000000000000000E+000	8.10194	8.10194	0.0000000E+000	0.000000000000000E+000	0.0125219
1	1	0	1	0	0	0	3678.11	10	1.25225	9.99887	30.7869	30.7869	0	8.55191	11	0.0107436	0.000000000000000E+000	2.58869e+08	0.000000000000000E+000	0.000000000000000E+000	8.55191	8.55191	0.0000000E+000	0.000000000000000E+000	0.0125211
1	1	0	1	0	0	0	3840.11	10	1.25325	9.99932	32.4067	32.4067	0	9.00187	11	0.0113073	0.000000000000000E+000	2.70232e+08	0.000000000000000E+000	0.000000000000000E+000	9.00187	9.00187	0.0000000E+000	0.000000000000000E+000	0.0125316
1	1	0	1	0	0	0	4002.11	10	1.2526	9.999	34.0266	34.0266	0	9.45183	11	0.0118711	0.000000000000000E+000	2.85286e+08	0.000000000000000E+000	0.000000000000000E+000	9.45183	9.45183	0.0000000E+000	0.000000000000000E+000	0.0125247
1	1	0	1	0	0	0	4164.11	10	1.25353	9.99913	35.6464	35.6464	0	9.90179	11	0.0124349	0.000000000000000E+000	2.96549e+08	0.000000000000000E+000	0.000000000000000E+000	9.90179	9.90179	0.0000000E+000	0.000000000000000E+000	0.0125342
1	1	0	1	0	0	0	4326.11	10	1.25423	9.99862	37.2663	37.2663	0	10.3517	11	0.0129991	0.000000000000000E+000	3.0822e+08	0.000000000000000E+000	0.000000000000000E+000	10.3517	10.3517	0.0000000E+000	0.000000000000000E+000	0.0125406
1	1	0	1	0	0	0	4488.11	10	1.25422	9.99932	38.8862	38.8862	0	10.8017	11	0.0135632	0.000000000000000E+000	3.21662e+08	0.000000000000000E+000	0.000000000000000E+000	10.8017	10.8017	0.0000000E+000	0.000000000000000E+000	0.0125413
1	1	0	1	0	0	0	4650.11	10	1.25383	9.99945	40.506	40.506	0	11.2517	11	0.0141274	0.000000000000000E+000	3.36143e+08	0.000000000000000E+000	0.000000000000000E+000	11.2517	11.2517	0.0000000E+000	0.000000000000000E+000	0.0125376
1	1	0	1	0	0	0	4812.11	10	1.25446	9.99906	42.1259	42.1259	0	11.7016	11	0.0146916	0.000000000000000E+000	3.47777e+08	0.000000000000000E+000	0.000000000000000E+000	11.7016	11.7016	0.0000000E+000	0.000000000000000E+000	0.0125434
1	1	0	1	0	0	0	4974.11	10	1.25345	9.99945	43.7457	43.7457	0	12.1516	11	0.0152559	0.000000000000000E+000	3.64185e+08	0.000000000000000E+000	0.000000000000000E+000	12.1516	12.1516	0.0000000E+000	0.000000000000000E+000	0.0125338
1	1	0	1	0	0	0	5136.11	10	1.2545	9.9997	45.3656	45.3656	0	12.6016	11	0.0158203	0.000000000000000E+000	3.74386e+08	0.000000000000000E+000	0.000000000000000E+000	12.6016	12.6016	0.0000000E+000	0.000000000000000E+000	0.0125446
1	1	0	1	0	0	0	5298.11	10	1.2537	9.99894	46.9854	46.9854	0	13.0515	11	0.0163846	0.000000000000000E+000	3.90317e+08	0.000000000000000E+000	0.000000000000000E+000	13.0515	13.0515	0.0000000E+000	0.000000000000000E+000	0.0125357
1	1	0	1	0	0	0	5460.11	10	1.25535	9.99894	48.6053	48.6053	0	13.5015	11	0.016949	0.000000000000000E+000	3.98328e+08	0.000000000000000E+000	0.000000000000000E+000	13.5015	13.5015	0.0000000E+000	0.000000000000000E+000	0.0125522
1	1	0	1	0	0	0	5622.11	10	1.25455	9.99919	50.2251	50.2251	0	13.9514	11	0.0175135	0.000000000000000E+000	4.14317e+08	0.000000000000000E+000	0.000000000000000E+000	13.9514	13.9514	0.0000000E+000	0.000000000000000E+000	0.0125445
1	1	0	1	0	0	0	5784.11	10	1.25493	9.99919	51.845	51.845	0	14.4014	11	0.0180782	0.000000000000000E+000	4.26357e+08	0.000000000000000E+000	0.000000000000000E+000	14.4014	14.4014	0.0000000E+000	0.000000000000000E+000	0.0125482
1	1	0	1	0	0	0	5946.11	10	1.25594	9.99996	53.4649	53.4649	0	14.8514	11	0.0186431	0.000000000000000E+000	4.36053e+08	0.000000000000000E+000	0.000000000000000E+000	14.8514	14.8514	0.0000000E+000	0.000000000000000E+000	0.0125593
1	1	0	1	0	0	0	6108.11	10	1.25523	9.9997	55.0847	55.0847	0	15.3013	11	0.0192079	0.000000000000000E+000	4.51867e+08	0.000000000000000E+000	0.000000000000000E+000	15.3013	15.3013	0.0000000E+000	0.000000000000000E+000	0.0125519
1	1	0	1	0	0	0	6270.11	10	1.25549	9.99913	56.7046	56.7046	0	15.7513	11	0.0197727	0.000000000000000E+000	4.64162e+08	0.000000000000000E+000	0.000000000000000E+000	15.7513	15.7513	0.0000000E+000	0.000000000000000E+000	0.0125538
1	1	0	1	0	0	0	6432.11	10	1.2554	9.99919	58.3245	58.3245	0	16.2012	11	0.0203377	0.000000000000000E+000	4.77764e+08	0.000000000000000E+000	0.000000000000000E+000	16.2012	16.2012	0.0000000E+000	0.000000000000000E+000	0.012553
1	1	0	1	0	0	0	6594.11	10	1.25487	9.99887	59.9443	59.9443	0	16.6512	11	0.0209025	0.000000000000000E+000	4.9319e+08	0.000000000000000E+000	0.000000000000000E+000	16.6512	16.6512	0.0000000E+000	0.000000000000000E+000	0.0125473
1	1	0	1	0	0	0	6756.11	10	1.25531	9.99906	61.5642	61.5642	0	17.1012	11	0.0214675	0.000000000000000E+000	5.04677e+08	0.000000000000000E+000	0.000000000000000E+000	17.1012	17.1012	0.0000000E+000	0.000000000000000E+000	0.012552
1	1	0	1	0	0	0	6918.11	10	1.25538	9.99906	63.184	63.184	0	17.5511	11	0.0220325	0.000000000000000E+000	5.17674e+08	0.000000000000000E+000	0.000000000000000E+000	17.5511	17.5511	0.0000000E+000	0.000000000000000E+000	0.0125526
1	1	0	1	0	0	0	7080.11	10	1.25655	9.99881	64.8039	64.8039	0	18.0011	11	0.0225978	0.000000000000000E+000	5.25895e+08	0.000000000000000E+000	0.000000000000000E+000	18.0011	18.0011	0.0000000E+000	0.000000000000000E+000	0.012564
1	1	0	1	0	0	0	7242.11	10	1.25667	9.9997	66.4237	66.4237	0	18.451	11	0.0231632	0.000000000000000E+000	5.38516e+08	0.000000000000000E+000	0.000000000000000E+000	18.451	18.451	0.0000000E+000	0.000000000000000E+000	0.0125663
1	1	0	1	0	0	0	7404.11	10	1.25849	9.99836	68.0436	68.0436	0	18.901	11	0.0237288	0.000000000000000E+000	5.43647e+08	0.000000000000000E+000	0.000000000000000E+000	18.901	18.901	0.0000000E+000	0.000000000000000E+000	0.0125828
1	1	0	1	0	0	0	7566.11	10	1.25769	9.99906	69.6635	69.6635	0	19.351	11	0.0242946	0.000000000000000E+000	5.60146e+08	0.000000000000000E+000	0.000000000000000E+000	19.351	19.351	0.0000000E+000	0.000000000000000E+000	0.0125758
1	1	0	1	0	0	0	7728.11	10	1.25663	9.99906	71.2833	71.2833	0	19.8009	11	0.0248604	0.000000000000000E+000	5.78105e+08	0.000000000000000E+000	0.000000000000000E+000	19.8009	19.8009	0.0000000E+000	0.000000000000000E+000	0.0125651
1	1	0	1	0	0	0	7799.16	10	1.25679	9.9997	71.9938	71.9938	0	19.9983	11	0.0251085	0.000000000000000E+000	5.83107e+08	0.000000000000000E+000	0.000000000000000E+000	19.9983	19.9983	0.0000000E+000	0.000000000000000E+000	0.0125675