File: Data/2025-02-10 exp 8 CV 100mvs_C05.mpt
EC-Lab ASCII FILE
Nb header lines : 59

Cyclic Voltammetry

Run on channel : 5 (SN 39658)
User :
CE vs. WE compliance from -10 V to 10 V
Electrode connection : standard
Potential control : Ewe
Ewe ctrl range : min = -2.50 V, max = 2.50 V
Safety Limits :
	Do not start on E overload
Acquisition started on : 02/10/2025 12:58:40.102
Loaded Setting File :  NONE
Saved on :
	File : 2025-02-10 exp 8 CV 100mvs_C05.mpr
	Directory : C:\Users\thefo\OneDrive\Documents\EC-Lab\Data\CHEM 451\
	Host : 172.24.113.132
Device : VSP (SN 1910)
Address : USB
EC-Lab for windows v11.46 (software)
Internet server v11.40 (firmware)
Command interpretor v11.40 (firmware)
Electrode material : Au/Pd
Initial state :
Electrolyte : NaCl (0.2M)
Comments : Fe(CN)63-/Fe(CN)64- 5.10-3 M
Current amplifier : VSPB-4A
Reference electrode : SCE Saturated Calomel Electrode (0.241 V)
Electrode surface area : 0.001 cm²
Characteristic mass : 0.001 g
Equivalent Weight : 0.000 g/eq.
Density : 0.000 g/cm3
Volume (V) : 0.001 cm³
Cycle Definition : Charge/Discharge alternance
Ei (V)              0.000
vs.                 Eoc
dE/dt               100.000
dE/dt unit          mV/s
E1 (V)              -0.200
vs.                 Ref
Step percent        50
N                   10
E range min (V)     -2.500
E range max (V)     2.500
I Range             Auto
I Range min         Unset
I Range max         Unset
I Range init        Unset
Bandwidth           4
E2 (V)              0.500
vs.                 Ref
nc cycles           0
Reverse Scan        1
Ef (V)              0.000
vs.                 Ref

mode	ox/red	error	control changes	counter inc.	time/s	control/V	Ewe/V	<I>/mA	cycle number	(Q-Qo)/C	I Range	P/W
2	1	0	0	0	0.000000000000000E+000	0.301882	0.302125	5.57845e-05	1	0.0000000E+000	14	1.68539e-08
2	0	0	1	0	0.1357	0.288328	0.28849	-0.00471055	1	-3.99254e-07	14	-1.35895e-06
2	0	0	1	0	0.2757	0.274323	0.27447	-0.00792032	1	-1.28066e-06	14	-2.17389e-06
2	0	0	1	0	0.4457	0.257318	0.257559	-0.0125765	1	-2.99824e-06	13	-3.23918e-06
2	0	0	1	0	0.5857	0.243313	0.243479	-0.0174079	1	-5.09329e-06	13	-4.23844e-06
2	0	0	1	0	0.7259	0.229309	0.229506	-0.0228865	1	-7.91653e-06	13	-5.25259e-06
2	0	0	1	0	0.8659	0.215304	0.21545	-0.0285057	1	-1.15218e-05	13	-6.14155e-06
2	0	0	1	0	1.0059	0.201299	0.201465	-0.0333796	1	-1.58716e-05	13	-6.72482e-06
2	0	0	1	0	1.1459	0.187295	0.187452	-0.0368334	1	-2.08086e-05	13	-6.9045e-06
2	0	0	1	0	1.2861	0.17329	0.173454	-0.0385096	1	-2.6111e-05	13	-6.67963e-06
2	0	0	1	0	1.4261	0.159286	0.159438	-0.0386632	1	-3.15299e-05	13	-6.16437e-06
2	0	0	1	0	1.5661	0.145281	0.145438	-0.0378469	1	-3.68952e-05	13	-5.50437e-06
2	0	0	1	0	1.7061	0.131277	0.131396	-0.0365406	1	-4.21078e-05	13	-4.80128e-06
2	0	0	1	0	1.8461	0.117272	0.117486	-0.0351194	1	-4.71278e-05	13	-4.12604e-06
2	0	0	1	0	1.9863	0.103268	0.103501	-0.0337055	1	-5.19537e-05	13	-3.48855e-06
2	0	0	1	0	2.1263	0.0892632	0.0894257	-0.0323797	1	-5.65811e-05	13	-2.89557e-06
2	0	0	1	0	2.2663	0.0752586	0.0754279	-0.0311859	1	-6.10316e-05	13	-2.35229e-06
2	0	0	1	0	2.4063	0.0612541	0.0614281	-0.0301183	1	-6.53235e-05	13	-1.85011e-06
2	0	0	1	0	2.5465	0.0472496	0.0474038	-0.0292024	1	-6.94823e-05	13	-1.3843e-06
2	0	0	1	0	2.6865	0.033245	0.033389	-0.0284148	1	-7.35169e-05	13	-9.48743e-07
2	0	0	1	0	2.8265	0.0192405	0.0194274	-0.0277763	1	-7.74521e-05	13	-5.3962e-07
2	0	0	1	0	2.9665	0.00523598	0.00540519	-0.0272307	1	-8.13038e-05	13	-1.47187e-07
2	0	0	1	0	3.1067	-0.00876856	-0.00873898	-0.0267858	1	-8.50923e-05	13	2.3408e-07
2	0	0	1	0	3.2467	-0.0227731	-0.0226667	-0.0264119	1	-8.88172e-05	13	5.98672e-07
2	0	0	1	0	3.3867	-0.0367776	-0.0366921	-0.0260758	1	-9.24938e-05	13	9.56776e-07
2	0	0	1	0	3.5267	-0.0507822	-0.0507397	-0.0258349	1	-9.61304e-05	13	1.31086e-06
2	0	0	1	0	3.6667	-0.0647867	-0.0647035	-0.0256196	1	-9.9734e-05	13	1.65768e-06
2	0	0	1	0	3.8069	-0.0787913	-0.0787214	-0.0254321	1	-0.000103315	13	2.00205e-06
2	0	0	1	0	3.9469	-0.0927958	-0.0926948	-0.025309	1	-0.000106869	13	2.34601e-06
2	0	0	1	0	4.0869	-0.1068	-0.106697	-0.0251757	1	-0.000110405	13	2.68617e-06
2	0	0	1	0	4.2269	-0.120805	-0.120749	-0.0251041	1	-0.000113927	13	3.03129e-06
2	0	0	1	0	4.3671	-0.134809	-0.134739	-0.02503	1	-0.000117442	13	3.37252e-06
2	0	0	1	0	4.5071	-0.148814	-0.148732	-0.0249712	1	-0.000120944	13	3.714e-06
2	0	0	1	0	4.6471	-0.162819	-0.16275	-0.0249612	1	-0.000124442	13	4.06244e-06
2	0	0	1	0	4.7871	-0.176823	-0.176769	-0.0249339	1	-0.000127936	13	4.40754e-06
2	0	0	1	0	4.9271	-0.190828	-0.190746	-0.0249578	1	-0.000131432	13	4.7606e-06
2	0	0	1	0	5.0547	-0.196429	-0.19629	-0.0213043	1	-0.000134526	13	4.18183e-06
2	0	0	1	0	5.1949	-0.182425	-0.182241	-0.01753	1	-0.000137208	13	3.19467e-06
2	0	0	1	0	5.3349	-0.16842	-0.168267	-0.01533	1	-0.000139496	13	2.57953e-06
2	0	0	1	0	5.4749	-0.154416	-0.154266	-0.0136792	1	-0.000141519	13	2.11024e-06
2	0	0	1	0	5.6149	-0.140411	-0.14027	-0.0123417	1	-0.000143334	13	1.73117e-06
2	0	0	1	0	5.7551	-0.126407	-0.126216	-0.011186	1	-0.000144979	13	1.41185e-06
2	0	0	1	0	5.8951	-0.112402	-0.112252	-0.010207	1	-0.000146471	13	1.14576e-06
2	0	0	1	0	6.0351	-0.0983976	-0.0982774	-0.00929174	1	-0.000147831	13	9.13168e-07
2	0	0	1	0	6.1751	-0.0843931	-0.0842297	-0.00848976	1	-0.000149072	13	7.1509e-07
2	0	0	1	0	6.3151	-0.0703885	-0.0702468	-0.00776329	1	-0.000150205	13	5.45347e-07
2	0	0	1	0	6.4553	-0.056384	-0.0562512	-0.00707237	1	-0.000151241	13	3.97829e-07
2	0	0	1	0	6.5953	-0.0423795	-0.0422322	-0.00644701	1	-0.000152184	13	2.72271e-07
2	0	0	1	0	6.7353	-0.0283749	-0.0282419	-0.00584765	1	-0.000153041	13	1.65149e-07
2	0	0	1	0	6.8753	-0.0143704	-0.0142123	-0.00529185	1	-0.000153817	13	7.52091e-08
2	0	0	1	0	7.0155	-0.00036234	-0.00016357	-0.0047467	1	-0.000154517	13	7.76418e-10
2	0	0	1	0	7.1855	0.0166397	0.0168536	-0.00410743	1	-0.00015527	14	-6.92248e-08
2	0	0	1	0	7.3255	0.0306442	0.0308492	-0.00358926	1	-0.000155808	14	-1.10726e-07
2	0	0	1	0	7.4655	0.0446487	0.0448639	-0.00308302	1	-0.000156274	14	-1.38316e-07
2	0	0	1	0	7.6057	0.0586533	0.0589105	-0.00250603	1	-0.000156666	14	-1.47632e-07
2	0	0	1	0	7.7457	0.0726578	0.0729083	-0.00192011	1	-0.000156978	14	-1.39992e-07
2	0	0	1	0	7.8857	0.0866623	0.0869007	-0.00124064	1	-0.0001572	14	-1.07812e-07
2	0	0	1	0	8.0257	0.100667	0.100889	-0.000408865	1	-0.000157317	14	-4.12499e-08
2	1	0	1	0	8.1657	0.114671	0.114921	0.000631015	1	-0.000157304	14	7.25167e-08
2	1	0	1	0	8.3059	0.128676	0.128886	0.00203445	1	-0.000157123	14	2.62212e-07
2	1	0	1	0	8.4459	0.14268	0.142925	0.00388691	1	-0.000156716	14	5.55536e-07
2	1	0	1	0	8.5859	0.156685	0.156917	0.00642744	1	-0.000156	14	1.00857e-06
2	1	0	1	0	8.7259	0.17069	0.170942	0.00987808	1	-0.000154868	14	1.68858e-06
2	1	0	1	0	8.8961	0.187695	0.187952	0.0152318	1	-0.000152764	13	2.86284e-06
2	1	0	1	0	9.0361	0.2017	0.201936	0.0204388	1	-0.000150267	13	4.12733e-06
2	1	0	1	0	9.1761	0.215704	0.215926	0.0256316	1	-0.000147034	13	5.53454e-06
2	1	0	1	0	9.3161	0.229709	0.229938	0.0299256	1	-0.000143126	13	6.88104e-06
2	1	0	1	0	9.4563	0.243713	0.243944	0.0326107	1	-0.000138719	13	7.9552e-06
2	1	0	1	0	9.5963	0.257718	0.257952	0.0334981	1	-0.000134069	13	8.64088e-06
2	1	0	1	0	9.7363	0.271722	0.271946	0.0329608	1	-0.0001294	13	8.96356e-06
2	1	0	1	0	9.8763	0.285727	0.285945	0.0315533	1	-0.000124874	13	9.0225e-06
2	1	0	1	0	10.0163	0.299731	0.299975	0.0298021	1	-0.000120574	13	8.93989e-06
2	1	0	1	0	10.1565	0.313736	0.313973	0.0280458	1	-0.000116517	13	8.80562e-06
2	1	0	1	0	10.2965	0.32774	0.327941	0.0264336	1	-0.000112703	13	8.66866e-06
2	1	0	1	0	10.4365	0.341745	0.342041	0.0250519	1	-0.000109099	13	8.56877e-06
2	1	0	1	0	10.5765	0.355749	0.355963	0.0238123	1	-0.000105678	13	8.4763e-06
2	1	0	1	0	10.7167	0.369754	0.369997	0.0227494	1	-0.000102413	13	8.4172e-06
2	1	0	1	0	10.8567	0.383759	0.384045	0.0218379	1	-9.92902e-05	13	8.38675e-06
2	1	0	1	0	10.9967	0.397763	0.398006	0.0210325	1	-9.62878e-05	13	8.37104e-06
2	1	0	1	0	11.1367	0.411768	0.412017	0.0203281	1	-9.33903e-05	13	8.37553e-06
2	1	0	1	0	11.2769	0.425772	0.426069	0.0197037	1	-9.05809e-05	13	8.39512e-06
2	1	0	1	0	11.4169	0.439777	0.44007	0.0191742	1	-8.7856e-05	13	8.43797e-06
2	1	0	1	0	11.5569	0.453781	0.454059	0.0187141	1	-8.52016e-05	13	8.49731e-06
2	1	0	1	0	11.6969	0.467786	0.46807	0.0182987	1	-8.26085e-05	13	8.56506e-06
2	1	0	1	0	11.8369	0.48179	0.482069	0.0179505	1	-8.00685e-05	13	8.65339e-06
2	1	0	1	0	11.9771	0.495795	0.496092	0.017637	1	-7.75711e-05	13	8.74956e-06
2	1	0	1	1	12.0853	0.493394	0.493567	0.013753	1	-7.58469e-05	13	6.78801e-06
2	1	0	1	1	12.2255	0.479389	0.479585	0.0111756	1	-7.41187e-05	13	5.35966e-06
2	1	0	1	1	12.3655	0.465385	0.465586	0.00944181	1	-7.26834e-05	13	4.39597e-06
2	1	0	1	1	12.5055	0.45138	0.451611	0.00806913	1	-7.1464e-05	13	3.6441e-06
2	1	0	1	1	12.6455	0.437376	0.437569	0.00690147	1	-7.04216e-05	13	3.01987e-06
2	1	0	1	1	12.7857	0.423371	0.423557	0.00588377	1	-6.95308e-05	13	2.49211e-06
2	1	0	1	1	12.9257	0.409367	0.40951	0.00494201	1	-6.87778e-05	13	2.0238e-06
2	1	0	1	1	13.0957	0.392361	0.392556	0.00386476	1	-6.80268e-05	14	1.51713e-06
2	1	0	1	1	13.2357	0.378357	0.378512	0.00304097	1	-6.75427e-05	14	1.15104e-06
2	1	0	1	1	13.3757	0.364352	0.364513	0.00219962	1	-6.71758e-05	14	8.01792e-07
2	1	0	1	1	13.5159	0.350348	0.350525	0.00130566	1	-6.69287e-05	14	4.57667e-07
2	1	0	1	1	13.6559	0.336343	0.336492	0.000332283	1	-6.68128e-05	14	1.11811e-07
2	0	0	1	1	13.7959	0.322339	0.322489	-0.000809188	1	-6.68444e-05	14	-2.60954e-07
2	0	0	1	1	13.9359	0.308334	0.308487	-0.00217419	1	-6.70512e-05	14	-6.7071e-07
2	0	0	1	1	14.0761	0.29433	0.294507	-0.00393428	1	-6.74757e-05	14	-1.15867e-06
2	0	0	1	1	14.2161	0.280325	0.280501	-0.00626961	1	-6.81829e-05	14	-1.75863e-06
2	0	0	1	1	14.3561	0.26632	0.26655	-0.0093551	1	-6.92675e-05	14	-2.49361e-06
2	0	0	1	1	14.5261	0.249315	0.24946	-0.0143983	1	-7.1255e-05	13	-3.5918e-06
2	0	0	1	1	14.6663	0.23531	0.235472	-0.0195192	1	-7.36278e-05	13	-4.59622e-06
2	0	0	1	1	14.8063	0.221306	0.22145	-0.0251047	1	-7.67545e-05	13	-5.55943e-06
2	0	0	1	1	14.9463	0.207301	0.207439	-0.0303199	1	-8.06469e-05	13	-6.28954e-06
2	0	0	1	1	15.0863	0.193297	0.193471	-0.0343033	1	-8.51938e-05	13	-6.6367e-06
2	0	0	1	1	15.2263	0.179292	0.179431	-0.0366775	1	-9.01886e-05	13	-6.58108e-06
2	0	0	1	1	15.3665	0.165288	0.165413	-0.0373327	1	-9.53964e-05	13	-6.17531e-06
2	0	0	1	1	15.5065	0.151283	0.151453	-0.0367841	1	-0.000100598	13	-5.57107e-06
2	0	0	1	1	15.6465	0.137279	0.137418	-0.035586	1	-0.000105671	13	-4.89017e-06
2	0	0	1	1	15.7865	0.123274	0.123471	-0.034144	1	-0.000110555	13	-4.21578e-06
2	0	0	1	1	15.9267	0.10927	0.109457	-0.0326838	1	-0.000115241	13	-3.57746e-06
2	0	0	1	1	16.0667	0.0952651	0.0954337	-0.0312766	1	-0.000119718	13	-2.98484e-06
2	0	0	1	1	16.2067	0.0812606	0.0814243	-0.0299841	1	-0.000124008	13	-2.44143e-06
2	0	0	1	1	16.3467	0.0672561	0.0674095	-0.0288467	1	-0.000128127	13	-1.94454e-06
2	0	0	1	1	16.4869	0.0532515	0.0533693	-0.0278044	1	-0.0001321	13	-1.4839e-06
2	0	0	1	1	16.6269	0.039247	0.039449	-0.0269718	1	-0.000135937	13	-1.06401e-06
2	0	0	1	1	16.7669	0.0252425	0.0254109	-0.0262356	1	-0.000139663	13	-6.6667e-07
2	0	0	1	1	16.9069	0.0112379	0.0113888	-0.0256308	1	-0.000143296	13	-2.91903e-07
2	0	0	0	1	17.019	-1.57199e-05	0.000227909	-0.0252448	1	-0.000146148	13	-5.75353e-09