File: Data/2025-02-10 exp 6 CV 20mvs_C05.mpt
EC-Lab ASCII FILE
Nb header lines : 59

Cyclic Voltammetry

Run on channel : 5 (SN 39658)
User :
CE vs. WE compliance from -10 V to 10 V
Electrode connection : standard
Potential control : Ewe
Ewe ctrl range : min = -2.50 V, max = 2.50 V
Safety Limits :
	Do not start on E overload
Acquisition started on : 02/10/2025 12:54:38.763
Loaded Setting File :  NONE
Saved on :
	File : 2025-02-10 exp 6 CV 20mvs_C05.mpr
	Directory : C:\Users\thefo\OneDrive\Documents\EC-Lab\Data\CHEM 451\
	Host : 172.24.113.132
Device : VSP (SN 1910)
Address : USB
EC-Lab for windows v11.46 (software)
Internet server v11.40 (firmware)
Command interpretor v11.40 (firmware)
Electrode material : Au/Pd
Initial state :
Electrolyte : NaCl (0.2M)
Comments : Fe(CN)63-/Fe(CN)64- 5.10-3 M
Current amplifier : VSPB-4A
Reference electrode : SCE Saturated Calomel Electrode (0.241 V)
Electrode surface area : 0.001 cm²
Characteristic mass : 0.001 g
Equivalent Weight : 0.000 g/eq.
Density : 0.000 g/cm3
Volume (V) : 0.001 cm³
Cycle Definition : Charge/Discharge alternance
Ei (V)              0.000
vs.                 Eoc
dE/dt               20.000
dE/dt unit          mV/s
E1 (V)              -0.200
vs.                 Ref
Step percent        50
N                   10
E range min (V)     -2.500
E range max (V)     2.500
I Range             Auto
I Range min         Unset
I Range max         Unset
I Range init        Unset
Bandwidth           4
E2 (V)              0.500
vs.                 Ref
nc cycles           0
Reverse Scan        1
Ef (V)              0.000
vs.                 Ref

mode	ox/red	error	control changes	counter inc.	time/s	control/V	Ewe/V	<I>/mA	cycle number	(Q-Qo)/C	I Range	P/W
2	1	0	0	0	0.000000000000000E+000	0.213353	0.213536	0.000150511	1	0.0000000E+000	14	3.21396e-08
2	0	0	1	0	0.6278	0.200799	0.200981	-0.00687898	1	-2.74845e-06	14	-1.38254e-06
2	0	0	1	0	1.2781	0.187795	0.187966	-0.00963794	1	-8.2209e-06	14	-1.8116e-06
2	0	0	1	0	1.9433	0.174491	0.174657	-0.0108587	1	-1.51478e-05	14	-1.89654e-06
2	0	0	1	0	2.6085	0.161186	0.161408	-0.0112186	1	-2.26126e-05	13	-1.81078e-06
2	0	0	1	0	3.2587	0.148182	0.148354	-0.0109916	1	-2.99259e-05	13	-1.63066e-06
2	0	0	1	0	3.9089	0.135178	0.135388	-0.0105329	1	-3.69962e-05	13	-1.42603e-06
2	0	0	1	0	4.5591	0.122174	0.122377	-0.0100481	1	-4.37511e-05	13	-1.22965e-06
2	0	0	1	0	5.2093	0.10917	0.109342	-0.00961811	1	-5.02048e-05	13	-1.05167e-06
2	0	0	1	0	5.8595	0.0961654	0.0963546	-0.00924756	1	-5.63957e-05	13	-8.91045e-07
2	0	0	1	0	6.5097	0.0831612	0.0833583	-0.00894053	1	-6.23673e-05	13	-7.45268e-07
2	0	0	1	0	7.1599	0.070157	0.0704024	-0.00869901	1	-6.81603e-05	13	-6.12431e-07
2	0	0	1	0	7.8101	0.0571528	0.0573754	-0.00849663	1	-7.38067e-05	13	-4.87497e-07
2	0	0	1	0	8.4603	0.0441486	0.0443494	-0.00832805	1	-7.93342e-05	13	-3.69344e-07
2	0	0	1	0	9.1105	0.0311444	0.0313839	-0.008194	1	-8.47659e-05	13	-2.5716e-07
2	0	0	1	0	9.7607	0.0181402	0.0183516	-0.00808999	1	-9.01213e-05	13	-1.48464e-07
2	0	0	1	0	10.4109	0.00513595	0.00530971	-0.00800357	1	-9.54165e-05	13	-4.24966e-08
2	0	0	1	0	11.0611	-0.00786827	-0.00775445	-0.00795219	1	-0.000100667	13	6.16648e-08
2	0	0	1	0	11.7113	-0.0208725	-0.020738	-0.00789494	1	-0.000105882	13	1.63725e-07
2	0	0	1	0	12.3616	-0.0338763	-0.0337064	-0.00786764	1	-0.000111071	13	2.65189e-07
2	0	0	1	0	13.0119	-0.0468809	-0.0467888	-0.00783458	1	-0.000116241	13	3.66571e-07
2	0	0	1	0	13.6621	-0.0598851	-0.0597639	-0.0078199	1	-0.0001214	13	4.67347e-07
2	0	0	1	0	14.3123	-0.0728893	-0.0727527	-0.00781116	1	-0.000126551	13	5.68283e-07
2	0	0	1	0	14.9625	-0.0858936	-0.0857575	-0.0078097	1	-0.000131697	13	6.6974e-07
2	0	0	1	0	15.6127	-0.0988978	-0.0987919	-0.00781418	1	-0.000136846	13	7.71978e-07
2	0	0	1	0	16.2629	-0.111902	-0.111804	-0.00781647	1	-0.000141997	13	8.73913e-07
2	0	0	1	0	16.9131	-0.124906	-0.124765	-0.0078291	1	-0.000147155	13	9.76801e-07
2	0	0	1	0	17.5633	-0.13791	-0.137815	-0.00784318	1	-0.000152322	13	1.08091e-06
2	0	0	1	0	18.2135	-0.150915	-0.150798	-0.0078671	1	-0.000157501	13	1.18634e-06
2	0	0	1	0	18.8637	-0.163919	-0.163798	-0.00789185	1	-0.000162694	13	1.29267e-06
2	0	0	1	0	19.5139	-0.176923	-0.176832	-0.00792126	1	-0.000167908	13	1.40073e-06
2	0	0	1	0	20.1641	-0.189927	-0.189801	-0.0079646	1	-0.000173146	13	1.51169e-06
2	0	0	1	0	20.7447	-0.19843	-0.198341	-0.00724903	1	-0.000177791	13	1.43778e-06
2	0	0	1	0	21.3949	-0.185426	-0.185342	-0.00566163	1	-0.000181812	13	1.04934e-06
2	0	0	1	0	22.0451	-0.172422	-0.1723	-0.00489093	1	-0.000185152	13	8.42706e-07
2	0	0	1	0	22.7253	-0.158817	-0.158639	-0.00422039	1	-0.000188203	14	6.6952e-07
2	0	0	1	0	23.3755	-0.145813	-0.145605	-0.00381117	1	-0.000190804	14	5.54925e-07
2	0	0	1	0	24.0258	-0.132808	-0.132651	-0.00347667	1	-0.000193165	14	4.61184e-07
2	0	0	1	0	24.6761	-0.119805	-0.119637	-0.00319695	1	-0.000195327	14	3.82473e-07
2	0	0	1	0	25.3263	-0.1068	-0.10661	-0.00295516	1	-0.00019732	14	3.15049e-07
2	0	0	1	0	25.9765	-0.0937961	-0.0936528	-0.00273962	1	-0.000199166	14	2.56573e-07
2	0	0	1	0	26.6267	-0.0807919	-0.0806353	-0.00254847	1	-0.000200881	14	2.05497e-07
2	0	0	1	0	27.2769	-0.0677877	-0.0676211	-0.00237747	1	-0.000202479	14	1.60767e-07
2	0	0	1	0	27.9271	-0.0547835	-0.0546407	-0.00222434	1	-0.00020397	14	1.21539e-07
2	0	0	1	0	28.5773	-0.0417793	-0.0415914	-0.00207895	1	-0.000205364	14	8.64666e-08
2	0	0	1	0	29.2275	-0.028775	-0.0285548	-0.00194534	1	-0.000206668	14	5.55488e-08
2	0	0	1	0	29.8777	-0.0157708	-0.0156254	-0.00181725	1	-0.000207886	14	2.83953e-08
2	0	0	1	0	30.5279	-0.00276661	-0.00252836	-0.00168149	1	-0.000209021	14	4.25142e-09
2	0	0	1	0	31.1781	0.0102376	0.0104881	-0.00156623	1	-0.000210075	14	-1.64267e-08
2	0	0	1	0	31.8283	0.0232418	0.0235076	-0.0014444	1	-0.000211051	14	-3.39545e-08
2	0	0	1	0	32.4785	0.036246	0.0364795	-0.00131685	1	-0.000211947	14	-4.8038e-08
2	0	0	1	0	33.1287	0.0492502	0.0494821	-0.00118075	1	-0.000212758	14	-5.84258e-08
2	0	0	1	0	33.7789	0.0622544	0.062506	-0.00102941	1	-0.000213475	14	-6.43442e-08
2	0	0	1	0	34.4291	0.0752586	0.0755744	-0.000851393	1	-0.000214085	14	-6.43435e-08
2	0	0	1	0	35.0793	0.0882629	0.0885557	-0.000635449	1	-0.000214569	14	-5.62726e-08
2	0	0	1	0	35.7295	0.101267	0.101531	-0.000363501	1	-0.000214895	14	-3.69065e-08
2	0	0	1	0	36.3798	0.114271	0.114526	1.26807e-06	1	-0.000215014	14	1.45228e-10
2	1	0	1	0	37.0301	0.127275	0.12752	0.000511186	1	-0.000214853	14	6.51865e-08
2	1	0	1	0	37.6803	0.14028	0.140517	0.00123135	1	-0.000214296	14	1.73026e-07
2	1	0	1	0	38.3305	0.153284	0.153544	0.00225352	1	-0.000213178	14	3.46015e-07
2	1	0	1	0	38.9807	0.166288	0.166523	0.00367059	1	-0.000211271	14	6.11237e-07
2	1	0	1	0	39.6309	0.179292	0.179519	0.00553547	1	-0.0002083	14	9.93722e-07
2	1	0	1	0	40.2811	0.192297	0.192545	0.00782038	1	-0.00020397	14	1.50577e-06
2	1	0	1	0	40.9313	0.205301	0.205552	0.0103308	1	-0.000198066	14	2.12351e-06
2	1	0	1	0	41.6115	0.218905	0.219128	0.0125964	1	-0.000190202	13	2.76023e-06
2	1	0	1	0	42.2617	0.231909	0.232134	0.0141743	1	-0.000181372	13	3.29034e-06
2	1	0	1	0	42.9119	0.244914	0.245102	0.0148457	1	-0.000171813	13	3.6387e-06
2	1	0	1	0	43.5621	0.257918	0.258131	0.0147424	1	-0.000162084	13	3.80548e-06
2	1	0	1	0	44.2123	0.270922	0.271157	0.0141401	1	-0.000152601	13	3.83419e-06
2	1	0	1	0	44.8625	0.283926	0.28414	0.0133265	1	-0.000143591	13	3.7866e-06
2	1	0	1	0	45.5127	0.29693	0.297135	0.0124771	1	-0.000135133	13	3.70739e-06
2	1	0	1	0	46.1629	0.309935	0.310131	0.0116915	1	-0.000127216	13	3.62591e-06
2	1	0	1	0	46.8131	0.322939	0.323149	0.0109899	1	-0.000119788	13	3.55137e-06
2	1	0	1	0	47.4633	0.335943	0.33615	0.0103694	1	-0.00011279	13	3.48566e-06
2	1	0	1	0	48.1136	0.348946	0.349124	0.00981629	1	-0.000106169	13	3.4271e-06
2	1	0	1	0	48.7639	0.361951	0.362163	0.00933351	1	-9.98839e-05	13	3.38025e-06
2	1	0	1	0	49.4141	0.374956	0.375134	0.00889818	1	-9.38994e-05	13	3.33801e-06
2	1	0	1	0	50.0643	0.38796	0.388145	0.00851276	1	-8.81846e-05	13	3.30419e-06
2	1	0	1	0	50.7145	0.400964	0.401188	0.00816054	1	-8.27115e-05	13	3.27391e-06
2	1	0	1	0	51.3647	0.413968	0.414159	0.00785044	1	-7.74535e-05	13	3.25133e-06
2	1	0	1	0	52.0149	0.426972	0.427207	0.00757207	1	-7.23867e-05	13	3.23485e-06
2	1	0	1	0	52.6651	0.439977	0.440181	0.00732854	1	-6.74891e-05	13	3.22589e-06
2	1	0	1	0	53.3153	0.452981	0.453231	0.00711691	1	-6.27393e-05	13	3.2256e-06
2	1	0	1	0	53.9655	0.465985	0.466214	0.00693513	1	-5.81163e-05	13	3.23325e-06
2	1	0	1	0	54.6157	0.478989	0.479233	0.00678641	1	-5.36011e-05	13	3.25227e-06
2	1	0	1	0	55.2659	0.491994	0.492212	0.00666033	1	-4.91745e-05	13	3.27829e-06
2	1	0	1	1	55.7463	0.498396	0.498638	0.00597166	1	-4.59984e-05	13	2.9777e-06
2	1	0	1	1	56.3965	0.485391	0.485623	0.00468728	1	-4.26586e-05	13	2.27625e-06
2	1	0	1	1	57.0768	0.471789	0.471946	0.00391802	1	-3.97757e-05	14	1.8491e-06
2	1	0	1	1	57.7271	0.458783	0.458941	0.00342089	1	-3.74022e-05	14	1.56999e-06
2	1	0	1	1	58.3773	0.445779	0.445958	0.00301893	1	-3.53173e-05	14	1.34632e-06
2	1	0	1	1	59.0275	0.432774	0.43295	0.00267883	1	-3.34716e-05	14	1.1598e-06
2	1	0	1	1	59.6777	0.41977	0.419977	0.00237702	1	-3.18338e-05	14	9.98296e-07
2	1	0	1	1	60.3279	0.406766	0.406931	0.00209817	1	-3.03839e-05	14	8.53812e-07
2	1	0	1	1	60.9781	0.393762	0.393965	0.00183397	1	-2.91101e-05	14	7.2252e-07
2	1	0	1	1	61.6283	0.380758	0.380918	0.00156986	1	-2.80079e-05	14	5.9799e-07
2	1	0	1	1	62.2785	0.367753	0.367891	0.00129639	1	-2.70798e-05	14	4.76932e-07
2	1	0	1	1	62.9287	0.354749	0.354888	0.000998099	1	-2.63368e-05	14	3.54213e-07
2	1	0	1	1	63.5789	0.341745	0.341914	0.000656336	1	-2.57996e-05	14	2.2441e-07
2	1	0	1	1	64.2291	0.328741	0.328915	0.000252992	1	-2.55023e-05	14	8.32131e-08
2	0	0	1	1	64.8793	0.315736	0.315927	-0.000244355	1	-2.54951e-05	14	-7.71981e-08
2	0	0	1	1	65.5295	0.302732	0.302925	-0.000871004	1	-2.5852e-05	14	-2.63849e-07
2	0	0	1	1	66.1797	0.289728	0.289899	-0.00170785	1	-2.66817e-05	14	-4.95104e-07
2	0	0	1	1	66.8299	0.276724	0.276915	-0.00283076	1	-2.81425e-05	14	-7.83882e-07
2	0	0	1	1	67.4801	0.26372	0.263874	-0.00432654	1	-3.04498e-05	14	-1.14166e-06
2	0	0	1	1	68.1303	0.250715	0.250895	-0.00626327	1	-3.38747e-05	14	-1.57143e-06
2	0	0	1	1	68.7806	0.237711	0.237925	-0.00859897	1	-3.8693e-05	14	-2.0459e-06
2	0	0	1	1	69.4609	0.224107	0.224282	-0.011079	1	-4.54388e-05	13	-2.48481e-06
2	0	0	1	1	70.1111	0.211103	0.211285	-0.0134529	1	-5.3528e-05	13	-2.8424e-06
2	0	0	1	1	70.7613	0.198098	0.198325	-0.0152285	1	-6.29726e-05	13	-3.02019e-06
2	0	0	1	1	71.4115	0.185094	0.185304	-0.0162636	1	-7.33346e-05	13	-3.01372e-06
2	0	0	1	1	72.0617	0.17209	0.172286	-0.0165403	1	-8.41135e-05	13	-2.84966e-06
2	0	0	1	1	72.7119	0.159086	0.159274	-0.0162058	1	-9.48582e-05	13	-2.58117e-06
2	0	0	1	1	73.3621	0.146082	0.146288	-0.0154358	1	-0.000105233	13	-2.25807e-06
2	0	0	1	1	74.0123	0.133077	0.13327	-0.0144868	1	-0.000115031	13	-1.93066e-06
2	0	0	1	1	74.6625	0.120073	0.120252	-0.0135864	1	-0.000124216	13	-1.63379e-06
2	0	0	1	1	75.3127	0.107069	0.107297	-0.0128275	1	-0.000132858	13	-1.37635e-06
2	0	0	1	1	75.9629	0.0940647	0.0942232	-0.0121875	1	-0.000141045	13	-1.14834e-06
2	0	0	1	1	76.6131	0.0810605	0.0812842	-0.0116517	1	-0.00014885	13	-9.47096e-07
2	0	0	1	1	77.2633	0.0680563	0.0682487	-0.0112064	1	-0.000156336	13	-7.6482e-07
2	0	0	1	1	77.9135	0.0550521	0.0552334	-0.0108303	1	-0.000163553	13	-5.98194e-07
2	0	0	1	1	78.5637	0.0420479	0.0422148	-0.0105038	1	-0.000170542	13	-4.43415e-07
2	0	0	1	1	79.2139	0.0290437	0.0292451	-0.0102285	1	-0.00017734	13	-2.99133e-07
2	0	0	1	1	79.8641	0.0160395	0.0162541	-0.00999192	1	-0.000183972	13	-1.6241e-07
2	0	0	1	1	80.5144	0.00303615	0.00318762	-0.00978286	1	-0.000190464	13	-3.1184e-08
2	0	0	0	1	80.6638	-1.57199e-05	5.60402e-05	-0.01005	1	-0.000191938	13	-5.63207e-10