File: Data/2025-02-10 exp 9 CV 500mvs_C05.mpt
EC-Lab ASCII FILE
Nb header lines : 59

Cyclic Voltammetry

Run on channel : 5 (SN 39658)
User :
CE vs. WE compliance from -10 V to 10 V
Electrode connection : standard
Potential control : Ewe
Ewe ctrl range : min = -2.50 V, max = 2.50 V
Safety Limits :
	Do not start on E overload
Acquisition started on : 02/10/2025 12:59:58.486
Loaded Setting File :  NONE
Saved on :
	File : 2025-02-10 exp 9 CV 500mvs_C05.mpr
	Directory : C:\Users\thefo\OneDrive\Documents\EC-Lab\Data\CHEM 451\
	Host : 172.24.113.132
Device : VSP (SN 1910)
Address : USB
EC-Lab for windows v11.46 (software)
Internet server v11.40 (firmware)
Command interpretor v11.40 (firmware)
Electrode material : Au/Pd
Initial state :
Electrolyte : NaCl (0.2M)
Comments : Fe(CN)63-/Fe(CN)64- 5.10-3 M
Current amplifier : VSPB-4A
Reference electrode : SCE Saturated Calomel Electrode (0.241 V)
Electrode surface area : 0.001 cm²
Characteristic mass : 0.001 g
Equivalent Weight : 0.000 g/eq.
Density : 0.000 g/cm3
Volume (V) : 0.001 cm³
Cycle Definition : Charge/Discharge alternance
Ei (V)              0.000
vs.                 Eoc
dE/dt               500.000
dE/dt unit          mV/s
E1 (V)              -0.200
vs.                 Ref
Step percent        50
N                   10
E range min (V)     -2.500
E range max (V)     2.500
I Range             Auto
I Range min         Unset
I Range max         Unset
I Range init        Unset
Bandwidth           4
E2 (V)              0.500
vs.                 Ref
nc cycles           0
Reverse Scan        1
Ef (V)              0.000
vs.                 Ref

mode	ox/red	error	control changes	counter inc.	time/s	control/V	Ewe/V	<I>/mA	cycle number	(Q-Qo)/C	I Range	P/W
2	1	0	0	0	0.000000000000000E+000	0.298281	0.298268	7.95456e-05	1	0.0000000E+000	14	2.37259e-08
2	0	0	1	0	0.0253	0.285727	0.286152	-0.00983361	1	-1.53718e-07	14	-2.81391e-06
2	0	0	1	0	0.0813	0.257718	0.257934	-0.0241165	1	-9.85614e-07	13	-6.22044e-06
2	0	0	1	0	0.1073	0.244714	0.244918	-0.0323063	1	-1.71862e-06	13	-7.9124e-06
2	0	0	1	0	0.1333	0.231709	0.232012	-0.0416443	1	-2.68017e-06	13	-9.66198e-06
2	0	0	1	0	0.1593	0.218705	0.218956	-0.0517506	1	-3.89586e-06	13	-1.13311e-05
2	0	0	1	0	0.1853	0.205701	0.205934	-0.0617231	1	-5.37456e-06	13	-1.27109e-05
2	0	0	1	0	0.2113	0.192697	0.192973	-0.0706059	1	-7.09989e-06	13	-1.36251e-05
2	0	0	1	0	0.2373	0.179692	0.179894	-0.0773599	1	-9.02947e-06	13	-1.39166e-05
2	0	0	1	0	0.2633	0.166688	0.166933	-0.0816059	1	-1.11023e-05	13	-1.36227e-05
2	0	0	1	0	0.2893	0.153684	0.153892	-0.0833794	1	-1.32521e-05	13	-1.28315e-05
2	0	0	1	0	0.3153	0.14068	0.140866	-0.0832066	1	-1.54212e-05	13	-1.1721e-05
2	0	0	1	0	0.3413	0.127676	0.127881	-0.0818855	1	-1.75688e-05	13	-1.04716e-05
2	0	0	1	0	0.3673	0.114671	0.114858	-0.0799208	1	-1.96727e-05	13	-9.17954e-06
2	0	0	1	0	0.3933	0.101667	0.10189	-0.07787	1	-2.17243e-05	13	-7.93421e-06
2	0	0	1	0	0.4193	0.088663	0.0888751	-0.0759199	1	-2.37233e-05	13	-6.74739e-06
2	0	0	1	0	0.4453	0.0756588	0.0758735	-0.0741889	1	-2.56741e-05	13	-5.62897e-06
2	0	0	1	0	0.4713	0.0626546	0.0628115	-0.0726727	1	-2.75824e-05	13	-4.56468e-06
2	0	0	1	0	0.4973	0.0496504	0.0498683	-0.0713701	1	-2.9454e-05	13	-3.55911e-06
2	0	0	1	0	0.5233	0.0366462	0.0368476	-0.0702414	1	-3.12943e-05	13	-2.58823e-06
2	0	0	1	0	0.5493	0.0236419	0.0238026	-0.0692837	1	-3.31078e-05	13	-1.64913e-06
2	0	0	1	0	0.5753	0.0106377	0.0108944	-0.0684828	1	-3.48987e-05	13	-7.46078e-07
2	0	0	1	0	0.6013	-0.00236648	-0.00215173	-0.0678009	1	-3.66702e-05	13	1.45889e-07
2	0	0	1	0	0.6275	-0.0153707	-0.0152329	-0.0672208	1	-3.84387e-05	13	1.02396e-06
2	0	0	1	0	0.6535	-0.0283749	-0.0282068	-0.0666957	1	-4.01793e-05	13	1.88128e-06
2	0	0	1	0	0.6795	-0.0413791	-0.0412371	-0.0663128	1	-4.19082e-05	13	2.73455e-06
2	0	0	1	0	0.7055	-0.0543833	-0.0542779	-0.065949	1	-4.3627e-05	13	3.57957e-06
2	0	0	1	0	0.7315	-0.0673876	-0.067254	-0.0656389	1	-4.53373e-05	13	4.41448e-06
2	0	0	1	0	0.7575	-0.0803918	-0.0802831	-0.0653899	1	-4.70407e-05	13	5.24971e-06
2	0	0	1	0	0.7835	-0.093396	-0.093272	-0.0651741	1	-4.87385e-05	13	6.07892e-06
2	0	0	1	0	0.8095	-0.1064	-0.10628	-0.0650552	1	-5.0432e-05	13	6.91406e-06
2	0	0	1	0	0.8355	-0.119404	-0.119294	-0.0649711	1	-5.2122e-05	13	7.75068e-06
2	0	0	1	0	0.8615	-0.132409	-0.132308	-0.0649328	1	-5.381e-05	13	8.59116e-06
2	0	0	1	0	0.8875	-0.145413	-0.145298	-0.0649163	1	-5.54972e-05	13	9.43223e-06
2	0	0	1	0	0.9135	-0.158417	-0.158293	-0.0649311	1	-5.71845e-05	13	1.02781e-05
2	0	0	1	0	0.9395	-0.171421	-0.171296	-0.0649682	1	-5.88729e-05	13	1.11288e-05
2	0	0	1	0	0.9655	-0.184426	-0.184316	-0.0650815	1	-6.05633e-05	13	1.19956e-05
2	0	0	1	0	0.9915	-0.19743	-0.197326	-0.0651926	1	-6.22568e-05	13	1.28642e-05
2	0	0	1	0	1.0141	-0.191528	-0.191458	-0.0511636	1	-6.35601e-05	13	9.79567e-06
2	0	0	1	0	1.0401	-0.178524	-0.178404	-0.0440517	1	-6.47896e-05	13	7.85902e-06
2	0	0	1	0	1.0661	-0.165519	-0.165431	-0.0391004	1	-6.58674e-05	13	6.46844e-06
2	0	0	1	0	1.0921	-0.152515	-0.152385	-0.0352224	1	-6.68319e-05	13	5.36738e-06
2	0	0	1	0	1.1181	-0.139511	-0.139393	-0.0319115	1	-6.77038e-05	13	4.44824e-06
2	0	0	1	0	1.1441	-0.126507	-0.126352	-0.029142	1	-6.84967e-05	13	3.68217e-06
2	0	0	1	0	1.1701	-0.113502	-0.113432	-0.0266012	1	-6.92202e-05	13	3.01741e-06
2	0	0	1	0	1.1961	-0.100498	-0.100381	-0.0243798	1	-6.98821e-05	13	2.44727e-06
2	0	0	1	0	1.2221	-0.0874941	-0.087387	-0.0223001	1	-7.04877e-05	13	1.94874e-06
2	0	0	1	0	1.2481	-0.0744899	-0.0744247	-0.0203911	1	-7.10417e-05	13	1.5176e-06
2	0	0	1	0	1.2741	-0.0614856	-0.0613468	-0.0186421	1	-7.1548e-05	13	1.14363e-06
2	0	0	1	0	1.3001	-0.0484814	-0.0483601	-0.0169731	1	-7.20096e-05	13	8.20822e-07
2	0	0	1	0	1.3261	-0.0354772	-0.0353787	-0.0154327	1	-7.24294e-05	13	5.45989e-07
2	0	0	1	0	1.3521	-0.022473	-0.0223835	-0.0139197	1	-7.28095e-05	13	3.1157e-07
2	0	0	1	0	1.3783	-0.00946878	-0.00934158	-0.0124998	1	-7.31549e-05	13	1.16768e-07
2	0	0	1	0	1.4043	0.00353543	0.00369499	-0.0110772	1	-7.34605e-05	13	-4.09301e-08
2	0	0	1	0	1.4303	0.0165396	0.0167209	-0.00971628	1	-7.37307e-05	13	-1.62465e-07
2	0	0	1	0	1.4563	0.0295439	0.0297692	-0.00837684	1	-7.39662e-05	13	-2.49372e-07
2	0	0	1	0	1.4823	0.0425481	0.0426891	-0.00703986	1	-7.41673e-05	13	-3.00525e-07
2	0	0	1	0	1.5083	0.0555523	0.0557437	-0.0056905	1	-7.43332e-05	13	-3.17209e-07
2	0	0	1	0	1.5343	0.0685565	0.068759	-0.00422256	1	-7.44627e-05	13	-2.90339e-07
2	0	0	1	0	1.5603	0.0815607	0.0817351	-0.00271854	1	-7.45532e-05	13	-2.222e-07
2	0	0	1	0	1.5863	0.0945649	0.0947717	-0.000912631	1	-7.46006e-05	13	-8.64916e-08
2	1	0	1	0	1.6123	0.107569	0.107745	0.00108634	1	-7.45989e-05	13	1.17047e-07
2	1	0	1	0	1.6383	0.120573	0.12073	0.00361319	1	-7.45378e-05	13	4.36221e-07
2	1	0	1	0	1.6643	0.133578	0.133746	0.00675872	1	-7.44041e-05	13	9.03948e-07
2	1	0	1	0	1.6903	0.146582	0.146752	0.010722	1	-7.41784e-05	13	1.57348e-06
2	1	0	1	0	1.7163	0.159586	0.159715	0.0157771	1	-7.38358e-05	13	2.51983e-06
2	1	0	1	0	1.7423	0.17259	0.1728	0.022094	1	-7.33455e-05	13	3.81784e-06
2	1	0	1	0	1.7683	0.185594	0.185777	0.0297616	1	-7.26735e-05	13	5.52902e-06
2	1	0	1	0	1.7943	0.198599	0.19873	0.038402	1	-7.17881e-05	13	7.63163e-06
2	1	0	1	0	1.8203	0.211603	0.211741	0.0476379	1	-7.0668e-05	13	1.00869e-05
2	1	0	1	0	1.8463	0.224607	0.22476	0.0564928	1	-6.9311e-05	13	1.26973e-05
2	1	0	1	0	1.8723	0.237611	0.237811	0.0639467	1	-6.77399e-05	13	1.52072e-05
2	1	0	1	0	1.8983	0.250615	0.250756	0.0692525	1	-6.60026e-05	13	1.73655e-05
2	1	0	1	0	1.9243	0.26362	0.263818	0.0719841	1	-6.41609e-05	13	1.89907e-05
2	1	0	1	0	1.9503	0.276624	0.276835	0.0724841	1	-6.22786e-05	13	2.00661e-05
2	1	0	1	0	1.9763	0.289628	0.289835	0.0712557	1	-6.04073e-05	13	2.06524e-05
2	1	0	1	0	2.0025	0.302632	0.302885	0.0689931	1	-5.8569e-05	13	2.0897e-05
2	1	0	1	0	2.0285	0.315636	0.315826	0.0664721	1	-5.68076e-05	13	2.09936e-05
2	1	0	1	0	2.0545	0.328641	0.328826	0.0639277	1	-5.51126e-05	13	2.10211e-05
2	1	0	1	0	2.0805	0.341645	0.34186	0.0615599	1	-5.34821e-05	13	2.10449e-05
2	1	0	1	0	2.1065	0.354649	0.354869	0.0594466	1	-5.19102e-05	13	2.10957e-05
2	1	0	1	0	2.1325	0.367653	0.367869	0.0575648	1	-5.03906e-05	13	2.11763e-05
2	1	0	1	0	2.1585	0.380658	0.380848	0.0559018	1	-4.89166e-05	13	2.12901e-05
2	1	0	1	0	2.1845	0.393662	0.393901	0.0544518	1	-4.74828e-05	13	2.14486e-05
2	1	0	1	0	2.2105	0.406666	0.406896	0.0531574	1	-4.60844e-05	13	2.16295e-05
2	1	0	1	0	2.2365	0.41967	0.419892	0.0520524	1	-4.47172e-05	13	2.18564e-05
2	1	0	1	0	2.2625	0.432674	0.432907	0.0510137	1	-4.33779e-05	13	2.20842e-05
2	1	0	1	0	2.2885	0.445679	0.445909	0.0501613	1	-4.20629e-05	13	2.23674e-05
2	1	0	1	0	2.3145	0.458683	0.458923	0.0493843	1	-4.07698e-05	13	2.26636e-05
2	1	0	1	0	2.3405	0.471687	0.47188	0.0486734	1	-3.94958e-05	13	2.2968e-05
2	1	0	1	0	2.3665	0.484691	0.484919	0.0480797	1	-3.82388e-05	13	2.33148e-05
2	1	0	1	0	2.3925	0.497695	0.497904	0.047523	1	-3.69963e-05	13	2.36619e-05
2	1	0	1	1	2.4147	0.491393	0.491627	0.035945	1	-3.60857e-05	13	1.76716e-05
2	1	0	1	1	2.4407	0.478389	0.478593	0.0301989	1	-3.52316e-05	13	1.4453e-05
2	1	0	1	1	2.4667	0.465385	0.465604	0.0261039	1	-3.4502e-05	13	1.21541e-05
2	1	0	1	1	2.4927	0.452381	0.452598	0.0227769	1	-3.38678e-05	13	1.03088e-05
2	1	0	1	1	2.5187	0.439377	0.439631	0.0199637	1	-3.33133e-05	13	8.77666e-06
2	1	0	1	1	2.5447	0.426372	0.426554	0.017406	1	-3.28283e-05	13	7.42458e-06
2	1	0	1	1	2.5707	0.413368	0.413568	0.0151078	1	-3.24057e-05	13	6.2481e-06
2	1	0	1	1	2.5967	0.400364	0.400576	0.0129649	1	-3.20406e-05	13	5.19344e-06
2	1	0	1	1	2.6227	0.38736	0.387568	0.0109403	1	-3.17295e-05	13	4.24011e-06
2	1	0	1	1	2.6487	0.374355	0.374541	0.00898805	1	-3.14707e-05	13	3.3664e-06
2	1	0	1	1	2.6747	0.361351	0.361531	0.00696872	1	-3.12634e-05	13	2.51941e-06
2	1	0	1	1	2.7007	0.348347	0.348585	0.0049598	1	-3.11085e-05	13	1.72891e-06
2	1	0	1	1	2.7267	0.335343	0.335552	0.00273099	1	-3.10089e-05	13	9.1639e-07
2	1	0	1	1	2.7527	0.322339	0.32254	0.000308134	1	-3.09693e-05	13	9.93857e-08
2	0	0	1	1	2.7787	0.309334	0.309541	-0.00248594	1	-3.09975e-05	13	-7.69501e-07
2	0	0	1	1	2.8049	0.29633	0.296523	-0.0057672	1	-3.11056e-05	13	-1.71011e-06
2	0	0	1	1	2.8309	0.283326	0.283598	-0.00992526	1	-3.13091e-05	13	-2.81479e-06
2	0	0	1	1	2.8569	0.270322	0.270557	-0.0151411	1	-3.16338e-05	13	-4.09654e-06
2	0	0	1	1	2.8829	0.257318	0.257528	-0.0216022	1	-3.21103e-05	13	-5.56318e-06
2	0	0	1	1	2.9089	0.244313	0.244557	-0.029541	1	-3.27741e-05	13	-7.22446e-06
2	0	0	1	1	2.9349	0.231309	0.23154	-0.0386944	1	-3.36609e-05	13	-8.95929e-06
2	0	0	1	1	2.9609	0.218305	0.218579	-0.0486524	1	-3.47971e-05	13	-1.06344e-05
2	0	0	1	1	2.9869	0.205301	0.205537	-0.0583418	1	-3.61904e-05	13	-1.19914e-05
2	0	0	1	1	3.0129	0.192297	0.192575	-0.0668634	1	-3.78227e-05	13	-1.28762e-05
2	0	0	1	1	3.0389	0.179292	0.179544	-0.0732293	1	-3.96496e-05	13	-1.31479e-05
2	0	0	1	1	3.0649	0.166288	0.166496	-0.077075	1	-4.16094e-05	13	-1.28327e-05
2	0	0	1	1	3.0909	0.153284	0.153502	-0.0784861	1	-4.36363e-05	13	-1.20478e-05
2	0	0	1	1	3.1169	0.14028	0.140421	-0.0779986	1	-4.56739e-05	13	-1.09526e-05
2	0	0	1	1	3.1429	0.127275	0.127451	-0.0764855	1	-4.76844e-05	13	-9.74816e-06
2	0	0	1	1	3.1689	0.114271	0.114485	-0.0744649	1	-4.96474e-05	13	-8.52509e-06
2	0	0	1	1	3.1949	0.101267	0.101433	-0.0723728	1	-5.15563e-05	13	-7.34101e-06
2	0	0	1	1	3.2209	0.0882629	0.088439	-0.0704089	1	-5.34114e-05	13	-6.22689e-06
2	0	0	1	1	3.2469	0.0752586	0.0754683	-0.0686306	1	-5.5218e-05	13	-5.17943e-06
2	0	0	1	1	3.2729	0.0622544	0.0624571	-0.0670927	1	-5.69816e-05	13	-4.19042e-06
2	0	0	1	1	3.2989	0.0492502	0.0494291	-0.0657564	1	-5.87083e-05	13	-3.25028e-06
2	0	0	1	1	3.3249	0.036246	0.0364318	-0.0646295	1	-6.0403e-05	13	-2.35457e-06
2	0	0	1	1	3.3509	0.0232418	0.0234355	-0.0636508	1	-6.20701e-05	13	-1.49169e-06
2	0	0	1	1	3.3769	0.0102376	0.0104658	-0.0628104	1	-6.37138e-05	13	-6.57359e-07
2	0	0	1	1	3.3976	-0.000115752	0.000132426	-0.0622276	1	-6.50076e-05	13	-8.24058e-09