File: Data/2025-02-10 exp 1 CV with stirring_C05.mpt
EC-Lab ASCII FILE
Nb header lines : 59

Cyclic Voltammetry

Run on channel : 5 (SN 39658)
User :
CE vs. WE compliance from -10 V to 10 V
Electrode connection : standard
Potential control : Ewe
Ewe ctrl range : min = -2.50 V, max = 2.50 V
Safety Limits :
	Do not start on E overload
Acquisition started on : 02/10/2025 12:36:52.263
Loaded Setting File :  NONE
Saved on :
	File : 2025-02-10 exp 1 CV with stirring_C05.mpr
	Directory : C:\Users\thefo\OneDrive\Documents\EC-Lab\Data\CHEM 451\
	Host : 172.24.113.132
Device : VSP (SN 1910)
Address : USB
EC-Lab for windows v11.46 (software)
Internet server v11.40 (firmware)
Command interpretor v11.40 (firmware)
Electrode material : Au/Pd
Initial state :
Electrolyte : NaCl (0.2M)
Comments : Fe(CN)63-/Fe(CN)64- 5.10-3 M
Current amplifier : VSPB-4A
Reference electrode : SCE Saturated Calomel Electrode (0.241 V)
Electrode surface area : 0.001 cm²
Characteristic mass : 0.001 g
Equivalent Weight : 0.000 g/eq.
Density : 0.000 g/cm3
Volume (V) : 0.001 cm³
Cycle Definition : Charge/Discharge alternance
Ei (V)              0.000
vs.                 Eoc
dE/dt               100.000
dE/dt unit          mV/s
E1 (V)              -0.500
vs.                 Ref
Step percent        50
N                   10
E range min (V)     -2.500
E range max (V)     2.500
I Range             Auto
I Range min         Unset
I Range max         Unset
I Range init        Unset
Bandwidth           4
E2 (V)              1.000
vs.                 Ref
nc cycles           2
Reverse Scan        1
Ef (V)              0.000
vs.                 Eoc

mode	ox/red	error	control changes	counter inc.	time/s	control/V	Ewe/V	<I>/mA	cycle number	(Q-Qo)/C	I Range	P/W
2	1	0	0	0	0.000000000000000E+000	0.377106	0.377117	1.5505e-05	1	0.0000000E+000	14	5.84719e-09
2	0	0	1	0	0.5657	0.320538	0.320772	-0.00437024	1	-1.54164e-06	14	-1.40185e-06
2	0	0	1	0	1.1659	0.260519	0.260721	-0.014867	1	-6.77836e-06	13	-3.87614e-06
2	0	0	1	0	1.7361	0.2035	0.203689	-0.0418147	1	-2.22492e-05	13	-8.51718e-06
2	0	0	1	0	2.3063	0.146482	0.146619	-0.0600209	1	-5.22186e-05	13	-8.80019e-06
2	0	0	1	0	2.8765	0.0894633	0.0896252	-0.0692138	1	-8.83147e-05	13	-6.2033e-06
2	0	0	1	0	3.4467	0.0324448	0.0326156	-0.0672146	1	-0.000127683	13	-2.19225e-06
2	0	0	1	0	4.0169	-0.0245737	-0.0244586	-0.06618	1	-0.000167827	13	1.61867e-06
2	0	0	1	0	4.5871	-0.0815922	-0.0815286	-0.0732336	1	-0.000208829	13	5.97063e-06
2	0	0	1	0	5.1573	-0.138611	-0.138541	-0.0701187	1	-0.000249579	13	9.71434e-06
2	0	0	1	0	5.7275	-0.195629	-0.195555	-0.0736383	1	-0.000292167	13	1.44003e-05
2	0	0	1	0	6.2977	-0.252648	-0.252581	-0.0781921	1	-0.00033625	13	1.97498e-05
2	0	0	1	0	6.8679	-0.309666	-0.309571	-0.081604	1	-0.000380857	13	2.52622e-05
2	0	0	1	0	7.4381	-0.366685	-0.366622	-0.0836585	1	-0.000427289	13	3.0671e-05
2	0	0	1	0	8.0081	-0.423703	-0.423645	-0.0906804	1	-0.000477457	13	3.84163e-05
2	0	0	1	0	8.5783	-0.480722	-0.480653	-0.0997111	1	-0.00053207	13	4.79264e-05
2	0	0	1	0	9.1371	-0.463416	-0.463274	-0.0894039	1	-0.000584639	13	4.14185e-05
2	0	0	1	0	9.7073	-0.406397	-0.406292	-0.076007	1	-0.000630116	13	3.0881e-05
2	0	0	1	0	10.2775	-0.349379	-0.3492	-0.0643127	1	-0.000669492	13	2.2458e-05
2	0	0	1	0	10.8477	-0.29236	-0.2922	-0.058443	1	-0.000704579	13	1.7077e-05
2	0	0	1	0	11.4179	-0.235342	-0.235173	-0.0577623	1	-0.000737874	13	1.35841e-05
2	0	0	1	0	11.9881	-0.178324	-0.178169	-0.0571087	1	-0.000771043	13	1.0175e-05
2	0	0	1	0	12.5581	-0.121305	-0.121135	-0.0521868	1	-0.000802613	13	6.32164e-06
2	0	0	1	0	13.1283	-0.0642866	-0.0641614	-0.0546448	1	-0.000832636	13	3.50609e-06
2	0	0	1	0	13.6985	-0.00726807	-0.00708819	-0.0515917	1	-0.000861976	13	3.65692e-07
2	0	0	1	0	14.2687	0.0497504	0.049968	-0.0464421	1	-0.000889338	13	-2.32062e-06
2	0	0	1	0	14.8389	0.106769	0.106986	-0.040173	1	-0.000916262	13	-4.29795e-06
2	0	0	1	0	15.4091	0.163787	0.164059	-0.0316718	1	-0.000937578	13	-5.19605e-06
2	0	0	1	0	15.9793	0.220806	0.221034	-0.00549643	1	-0.000947863	13	-1.2149e-06
2	1	0	1	0	16.6095	0.283826	0.284093	0.0111415	1	-0.000944437	13	3.16523e-06
2	1	0	1	0	17.1797	0.340845	0.34111	0.0129418	1	-0.000937239	13	4.41457e-06
2	1	0	1	0	17.7499	0.397863	0.398082	0.0135226	1	-0.000929493	13	5.38309e-06
2	1	0	1	0	18.3201	0.454882	0.455095	0.0134309	1	-0.00092175	13	6.11233e-06
2	1	0	1	0	18.8903	0.5119	0.512123	0.0133264	1	-0.000914027	13	6.82477e-06
2	1	0	1	0	19.4605	0.568918	0.569195	0.0136118	1	-0.000906198	13	7.74775e-06
2	1	0	1	0	20.0307	0.625937	0.626217	0.0141419	1	-0.000898134	13	8.85589e-06
2	1	0	1	0	20.6007	0.682955	0.68322	0.0151295	1	-0.000889696	13	1.03368e-05
2	1	0	1	0	21.1709	0.739974	0.740251	0.0163628	1	-0.000880738	13	1.21126e-05
2	1	0	1	0	21.7411	0.796992	0.79727	0.0175294	1	-0.000871091	13	1.39756e-05
2	1	0	1	0	22.3113	0.854011	0.854315	0.0192841	1	-0.000860588	13	1.64747e-05
2	1	0	1	0	22.8815	0.911029	0.911338	0.0217329	1	-0.000848989	13	1.9806e-05
2	1	0	1	0	23.4517	0.968048	0.96834	0.0243093	1	-0.000836086	13	2.35397e-05
2	1	0	1	1	24.0075	0.97645	0.976661	0.0160524	1	-0.00082364	13	1.56778e-05
2	1	0	1	1	24.5777	0.919432	0.91966	0.007862	1	-0.000817141	13	7.23037e-06
2	1	0	1	1	25.1779	0.859413	0.859662	0.00376792	1	-0.000813733	14	3.23914e-06
2	1	0	1	1	25.7481	0.802394	0.802538	0.00165886	1	-0.000812338	14	1.3313e-06
2	0	0	1	1	26.3183	0.745376	0.745514	-2.15779e-07	1	-0.000812083	14	-1.60866e-10
2	0	0	1	1	26.8883	0.688357	0.688598	-0.00153402	1	-0.000812632	14	-1.05632e-06
2	0	0	1	1	27.4585	0.631339	0.631498	-0.00279484	1	-0.000813799	14	-1.76494e-06
2	0	0	1	1	28.0287	0.57432	0.574462	-0.00353542	1	-0.000815465	14	-2.03096e-06
2	0	0	1	1	28.5989	0.517302	0.517496	-0.00402293	1	-0.000817578	14	-2.08185e-06
2	0	0	1	1	29.1691	0.460283	0.460527	-0.00469984	1	-0.00082011	14	-2.1644e-06
2	0	0	1	1	29.7393	0.403265	0.403394	-0.00568147	1	-0.000823077	14	-2.29187e-06
2	0	0	1	1	30.2965	0.347547	0.347675	-0.00674623	2	-0.000826549	14	-2.34549e-06
2	0	0	1	1	30.8967	0.287527	0.287694	-0.0121356	2	-0.000831962	13	-3.49134e-06
2	0	0	1	1	31.4669	0.230509	0.230715	-0.0303617	2	-0.000843401	13	-7.00489e-06
2	0	0	1	1	32.0371	0.17349	0.173666	-0.0601482	2	-0.000869874	13	-1.04457e-05
2	0	0	1	1	32.6073	0.116472	0.116614	-0.0691342	2	-0.000907932	13	-8.062e-06
2	0	0	1	1	33.1775	0.0594535	0.0595651	-0.0768956	2	-0.0009488	13	-4.58029e-06
2	0	0	1	1	33.7477	0.00243507	0.00258739	-0.0762147	2	-0.000991529	13	-1.97197e-07
2	0	0	1	1	34.3177	-0.0545834	-0.0545282	-0.0728872	2	-0.00103489	13	3.97441e-06
2	0	0	1	1	34.8879	-0.111602	-0.111508	-0.0758017	2	-0.00107784	13	8.4525e-06
2	0	0	1	1	35.4581	-0.16862	-0.168543	-0.0764302	2	-0.00112045	13	1.28818e-05
2	0	0	1	1	36.0283	-0.225639	-0.225555	-0.0761244	2	-0.00116455	13	1.71702e-05
2	0	0	1	1	36.5985	-0.282657	-0.282552	-0.0807122	2	-0.00120812	13	2.28054e-05
2	0	0	1	1	37.1687	-0.339676	-0.33965	-0.0829084	2	-0.00125352	13	2.81599e-05
2	0	0	1	1	37.7389	-0.396694	-0.396606	-0.0846292	2	-0.00130174	13	3.35644e-05
2	0	0	1	1	38.3091	-0.453713	-0.453633	-0.0907644	2	-0.00135161	13	4.11738e-05
2	0	0	1	1	38.8677	-0.490425	-0.49027	-0.0888643	2	-0.00140461	13	4.35675e-05
2	0	0	1	1	39.4379	-0.433406	-0.433198	-0.0785562	2	-0.00144944	13	3.40304e-05
2	0	0	1	1	40.0081	-0.376388	-0.376222	-0.0686564	2	-0.00148915	13	2.58301e-05
2	0	0	1	1	40.5783	-0.319369	-0.319227	-0.0615139	2	-0.00152628	13	1.96369e-05
2	0	0	1	1	41.1485	-0.262351	-0.262217	-0.0631789	2	-0.0015614	13	1.65666e-05
2	0	0	1	1	41.7187	-0.205332	-0.205201	-0.0663572	2	-0.00159545	13	1.36166e-05
2	0	0	1	1	42.2889	-0.148314	-0.148225	-0.053909	2	-0.00162886	13	7.99068e-06
2	0	0	1	1	42.8591	-0.0912953	-0.0911151	-0.0515669	2	-0.00165866	13	4.69852e-06
2	0	0	1	1	43.4293	-0.0342768	-0.0341289	-0.0513865	2	-0.00168912	13	1.75376e-06
2	0	0	1	1	43.9995	0.0227416	0.0229485	-0.0489491	2	-0.00171924	13	-1.12331e-06
2	0	0	1	1	44.5697	0.0797601	0.080044	-0.0500033	2	-0.00174685	13	-4.00246e-06
2	0	0	1	1	45.1399	0.136779	0.137026	-0.0391386	2	-0.00177188	13	-5.36301e-06
2	0	0	1	1	45.7101	0.193797	0.194007	-0.0174383	2	-0.00178937	13	-3.38315e-06
2	1	0	1	1	46.2801	0.250815	0.251027	0.00636905	2	-0.00179157	13	1.5988e-06
2	1	0	1	1	46.8503	0.307834	0.308075	0.0122136	2	-0.00178562	13	3.76272e-06
2	1	0	1	1	47.4205	0.364852	0.365077	0.0133265	2	-0.00177803	13	4.8652e-06
2	1	0	1	1	47.9907	0.421871	0.422187	0.0135905	2	-0.00177019	13	5.73773e-06
2	1	0	1	1	48.5609	0.478889	0.47912	0.0137215	2	-0.00176238	13	6.57423e-06
2	1	0	1	1	49.1311	0.535908	0.536153	0.0136117	2	-0.00175462	13	7.29797e-06
2	1	0	1	1	49.7013	0.592926	0.593146	0.0137257	2	-0.00174684	13	8.14131e-06
2	1	0	1	1	50.2715	0.649945	0.65021	0.0142273	2	-0.00173899	13	9.25073e-06
2	1	0	1	1	50.8417	0.706963	0.707214	0.0145367	2	-0.00173097	13	1.02806e-05
2	1	0	1	1	51.4119	0.763982	0.764227	0.0146649	2	-0.00172267	13	1.12073e-05
2	1	0	1	1	51.9821	0.821	0.821283	0.0154411	2	-0.00171395	13	1.26815e-05
2	1	0	1	1	52.5523	0.878019	0.87833	0.0169544	2	-0.00170457	13	1.48916e-05
2	1	0	1	1	53.1225	0.935037	0.935377	0.0190968	2	-0.00169422	13	1.78627e-05
2	1	0	1	1	53.6925	0.992055	0.992383	0.0222619	2	-0.00168251	13	2.20923e-05
2	1	0	1	0	54.2483	0.952443	0.95266	0.00981104	2	-0.00167397	13	9.34658e-06
2	1	0	1	0	54.8185	0.895424	0.895673	0.00489698	2	-0.00166985	13	4.38609e-06
2	1	0	1	0	55.4187	0.835405	0.835584	0.0021762	2	-0.00166785	14	1.81839e-06
2	1	0	1	0	55.9889	0.778386	0.778595	0.000448955	2	-0.00166731	14	3.49554e-07
2	0	0	1	0	56.5591	0.721368	0.721618	-0.00104475	2	-0.00166763	14	-7.53911e-07
2	0	0	1	0	57.1293	0.664349	0.66454	-0.00238845	2	-0.0016686	14	-1.58722e-06
2	0	0	1	0	57.6995	0.607331	0.607489	-0.00326708	2	-0.00167008	14	-1.98471e-06
2	0	0	1	0	58.2697	0.550312	0.550534	-0.00364667	2	-0.001672	14	-2.00761e-06
2	0	0	1	0	58.8399	0.493294	0.493474	-0.00417043	2	-0.00167433	14	-2.058e-06
2	0	0	1	0	59.4101	0.436276	0.436464	-0.00510351	2	-0.00167706	14	-2.2275e-06
2	0	0	1	0	59.9801	0.379257	0.379395	-0.00620381	2	-0.00168025	14	-2.35369e-06
2	0	0	1	0	60.5373	0.323539	0.323706	-0.00832135	3	-0.00168417	14	-2.69367e-06
2	0	0	1	0	61.1375	0.26352	0.263666	-0.0175943	3	-0.00169128	13	-4.63902e-06
2	0	0	1	0	61.7077	0.206501	0.206719	-0.0443158	3	-0.00170822	13	-9.16092e-06
2	0	0	1	0	62.2779	0.149483	0.149676	-0.0658017	3	-0.00173989	13	-9.84895e-06
2	0	0	1	0	62.8481	0.0924642	0.0925798	-0.0720972	3	-0.00177971	13	-6.67474e-06
2	0	0	1	0	63.4183	0.0354458	0.0355809	-0.06961	3	-0.0018203	13	-2.47679e-06
2	0	0	1	0	63.9885	-0.0215727	-0.0214817	-0.0723979	3	-0.00186184	13	1.55523e-06
2	0	0	1	0	64.5587	-0.0785912	-0.0785188	-0.0753943	3	-0.00190391	13	5.91987e-06
2	0	0	1	0	65.1289	-0.13561	-0.135535	-0.0770283	3	-0.00194716	13	1.044e-05
2	0	0	1	0	65.6991	-0.192628	-0.192546	-0.0724984	3	-0.00198965	13	1.39593e-05
2	0	0	1	0	66.2693	-0.249647	-0.249579	-0.0781125	3	-0.00203256	13	1.94953e-05
2	0	0	1	0	66.8395	-0.306665	-0.306611	-0.0777509	3	-0.00207547	13	2.38393e-05
2	0	0	1	0	67.4096	-0.363686	-0.363601	-0.0835083	3	-0.00212185	13	3.03637e-05
2	0	0	1	0	67.9797	-0.420702	-0.420606	-0.0834746	3	-0.0021696	13	3.51099e-05
2	0	0	1	0	68.5499	-0.477721	-0.47762	-0.092188	3	-0.0022201	13	4.40308e-05
2	0	0	1	0	69.1087	-0.466417	-0.466247	-0.0821369	3	-0.00226949	13	3.82961e-05
2	0	0	1	0	69.6789	-0.409398	-0.409247	-0.0700437	3	-0.00231259	13	2.86651e-05
2	0	0	1	0	70.2491	-0.35238	-0.35224	-0.0600623	3	-0.00235011	13	2.11564e-05
2	0	0	1	0	70.8193	-0.295361	-0.295186	-0.0590797	3	-0.00238423	13	1.74395e-05
2	0	0	1	0	71.3895	-0.238343	-0.238205	-0.0575579	3	-0.00241682	13	1.37106e-05
2	0	0	1	0	71.9595	-0.181325	-0.181147	-0.0548713	3	-0.0024482	13	9.93977e-06
2	0	0	1	0	72.5297	-0.124306	-0.124144	-0.0561578	3	-0.00247926	13	6.97164e-06
2	0	0	0	0	72.9828	-0.0789413	-0.0787363	-0.0490991	3	-0.00250293	13	3.86588e-06