File: Data/2025-02-10 exp 2 potential step 0 v_C05.mpt
EC-Lab ASCII FILE
Nb header lines : 62

Chronoamperometry / Chronocoulometry

Run on channel : 5 (SN 39658)
User :
CE vs. WE compliance from -10 V to 10 V
Electrode connection : standard
Potential control : Ewe
Ewe ctrl range : min = -2.50 V, max = 2.50 V
Safety Limits :
	Do not start on E overload
Acquisition started on : 02/10/2025 12:39:34.140
Loaded Setting File :  NONE
Saved on :
	File : 2025-02-10 exp2 potential step 0 v_C05.mpr
	Directory : C:\Users\thefo\OneDrive\Documents\EC-Lab\Data\CHEM 451\
	Host : 172.24.113.132
Device : VSP (SN 1910)
Address : USB
EC-Lab for windows v11.46 (software)
Internet server v11.40 (firmware)
Command interpretor v11.40 (firmware)
Electrode material :
Initial state :
Electrolyte :
Comments :
Current amplifier : VSPB-4A
Electrode surface area : 0.001 cm²
Characteristic mass : 0.001 g
Equivalent Weight : 0.000 g/eq.
Density : 0.000 g/cm3
Volume (V) : 0.001 cm³
Cycle Definition : Charge/Discharge alternance
Ei (V)              0.000
vs.                 Ref
ti (h:m:s)          0:00:30.0000
Imax                pass
unit Imax           mA
Imin                pass
unit Imin           mA
dQM                 0.000
unit dQM            mA.h
record              <I>
dI                  5.000
unit dI             µA
dQ                  0.000
unit dQ             mA.h
dt (s)              0.1000
dta (s)             0.1000
E range min (V)     -2.500
E range max (V)     2.500
I Range             Auto
I Range min         Unset
I Range max         Unset
I Range init        Unset
Bandwidth           4
goto Ns'            0
nc cycles           0

mode	ox/red	error	control changes	Ns changes	counter inc.	Ns	time/s	control/V	Ewe/V	<I>/mA	dQ/C	(Q-Qo)/C	I Range	Q charge/discharge/mA.h	half cycle	Energy charge/W.h	Energy discharge/W.h	Capacitance charge/µF	Capacitance discharge/µF	Q discharge/mA.h	Q charge/mA.h	Capacity/mA.h	Efficiency/%	cycle number	P/W
2	0	0	1	0	0	0	0.1	1.57199e-05	0.000151523	-0.11956	-1.10073e-05	-1.10073e-05	12	-3.05758e-06	0	0.000000000000000E+000	4.63293e-13	0.000000000000000E+000	0.000000000000000E+000	3.05758e-06	0.000000000000000E+000	3.05758e-06	0.0000000E+000	0.000000000000000E+000	-1.81161e-08
2	0	0	1	0	0	0	0.9	1.57199e-05	0.000247006	-0.0348063	-5.28521e-05	-5.28521e-05	13	-1.46811e-05	0	0.000000000000000E+000	2.2331e-12	0.000000000000000E+000	553525	1.46811e-05	0.000000000000000E+000	1.46811e-05	0.0000000E+000	0.000000000000000E+000	-8.59735e-09
2	0	0	1	0	0	0	1.7	1.57199e-05	0.000132426	-0.0239581	-7.51024e-05	-7.51024e-05	13	-2.08618e-05	0	0.000000000000000E+000	3.17883e-12	0.000000000000000E+000	3.93277e+06	2.08618e-05	0.000000000000000E+000	2.08618e-05	0.0000000E+000	0.000000000000000E+000	-3.17269e-09
2	0	0	1	0	0	0	2.5	1.57199e-05	0.000189716	-0.0191126	-9.18921e-05	-9.18921e-05	13	-2.55256e-05	0	0.000000000000000E+000	3.94985e-12	0.000000000000000E+000	2.40599e+06	2.55256e-05	0.000000000000000E+000	2.55256e-05	0.0000000E+000	0.000000000000000E+000	-3.62596e-09
2	0	0	1	0	0	0	3.3	1.57199e-05	0.00011333	-0.016251	-0.000105813	-0.000105813	13	-2.93924e-05	0	0.000000000000000E+000	4.78667e-12	0.000000000000000E+000	2.77046e+06	2.93924e-05	0.000000000000000E+000	2.93924e-05	0.0000000E+000	0.000000000000000E+000	-1.84172e-09
2	0	0	1	0	0	0	4.1	1.57199e-05	0.00011333	-0.0143308	-0.000117906	-0.000117906	13	-3.27517e-05	0	0.000000000000000E+000	5.34373e-12	0.000000000000000E+000	3.08711e+06	3.27517e-05	0.000000000000000E+000	3.27517e-05	0.0000000E+000	0.000000000000000E+000	-1.62411e-09
2	0	0	1	0	0	0	4.9	1.57199e-05	0.000170619	-0.0129386	-0.000128717	-0.000128717	13	-3.57547e-05	0	0.000000000000000E+000	5.78211e-12	0.000000000000000E+000	6.74033e+06	3.57547e-05	0.000000000000000E+000	3.57547e-05	0.0000000E+000	0.000000000000000E+000	-2.20759e-09
2	0	0	1	0	0	0	5.7	1.57199e-05	0.000151523	-0.0118791	-0.000138572	-0.000138572	13	-3.84921e-05	0	0.000000000000000E+000	6.22937e-12	0.000000000000000E+000	0.000000000000000E+000	3.84921e-05	0.000000000000000E+000	3.84921e-05	0.0000000E+000	0.000000000000000E+000	-1.79996e-09
2	0	0	1	0	0	0	6.5	1.57199e-05	1.78471e-05	-0.0110478	-0.000147689	-0.000147689	13	-4.10248e-05	0	0.000000000000000E+000	6.65211e-12	0.000000000000000E+000	1.10483e+06	4.10248e-05	0.000000000000000E+000	4.10248e-05	0.0000000E+000	0.000000000000000E+000	-1.97171e-10
2	0	0	1	0	0	0	7.3	1.57199e-05	0.000189716	-0.0103673	-0.000156212	-0.000156212	13	-4.33922e-05	0	0.000000000000000E+000	7.10188e-12	0.000000000000000E+000	4.09006e+06	4.33922e-05	0.000000000000000E+000	4.33922e-05	0.0000000E+000	0.000000000000000E+000	-1.96684e-09
2	0	0	1	0	0	0	8.1	1.57199e-05	0.000189716	-0.0098056	-0.000164247	-0.000164247	13	-4.56241e-05	0	0.000000000000000E+000	7.52616e-12	0.000000000000000E+000	4.30043e+06	4.56241e-05	0.000000000000000E+000	4.56241e-05	0.0000000E+000	0.000000000000000E+000	-1.86028e-09
2	0	0	1	0	0	0	8.9	1.57199e-05	0.000170619	-0.00932705	-0.000171872	-0.000171872	13	-4.77422e-05	0	0.000000000000000E+000	7.87732e-12	0.000000000000000E+000	9.00016e+06	4.77422e-05	0.000000000000000E+000	4.77422e-05	0.0000000E+000	0.000000000000000E+000	-1.59138e-09
2	0	0	1	0	0	0	9.7	1.57199e-05	0.000247006	-0.00892667	-0.000179151	-0.000179151	13	-4.97642e-05	0	0.000000000000000E+000	8.27555e-12	0.000000000000000E+000	1.87627e+06	4.97642e-05	0.000000000000000E+000	4.97642e-05	0.0000000E+000	0.000000000000000E+000	-2.20494e-09
2	0	0	1	0	0	0	10.5	1.57199e-05	0.000170619	-0.00857954	-0.000186133	-0.000186133	13	-5.17037e-05	0	0.000000000000000E+000	8.69016e-12	0.000000000000000E+000	9.74697e+06	5.17037e-05	0.000000000000000E+000	5.17037e-05	0.0000000E+000	0.000000000000000E+000	-1.46384e-09
2	0	0	1	0	0	0	11.3	1.57199e-05	0.000189716	-0.00827491	-0.000192857	-0.000192857	13	-5.35714e-05	0	0.000000000000000E+000	9.03015e-12	0.000000000000000E+000	5.04953e+06	5.35714e-05	0.000000000000000E+000	5.35714e-05	0.0000000E+000	0.000000000000000E+000	-1.56988e-09
2	0	0	1	0	0	0	12.1	1.57199e-05	0.000170619	-0.00800967	-0.000199356	-0.000199356	13	-5.53765e-05	0	0.000000000000000E+000	9.33854e-12	0.000000000000000E+000	1.04394e+07	5.53765e-05	0.000000000000000E+000	5.53765e-05	0.0000000E+000	0.000000000000000E+000	-1.3666e-09
2	0	0	1	0	0	0	12.9	1.57199e-05	0.000151523	-0.00777526	-0.000205656	-0.000205656	13	-5.71266e-05	0	0.000000000000000E+000	9.63295e-12	0.000000000000000E+000	0.000000000000000E+000	5.71266e-05	0.000000000000000E+000	5.71266e-05	0.0000000E+000	0.000000000000000E+000	-1.17813e-09
2	0	0	1	0	0	0	13.7	1.57199e-05	9.42333e-05	-0.00756889	-0.000211781	-0.000211781	13	-5.88282e-05	0	0.000000000000000E+000	9.89912e-12	0.000000000000000E+000	3.69668e+06	5.88282e-05	0.000000000000000E+000	5.88282e-05	0.0000000E+000	0.000000000000000E+000	-7.13241e-10
2	0	0	1	0	0	0	14.5	1.57199e-05	0.000227909	-0.00738559	-0.000217753	-0.000217753	13	-6.04868e-05	0	0.000000000000000E+000	1.0249e-11	0.000000000000000E+000	2.85068e+06	6.04868e-05	0.000000000000000E+000	6.04868e-05	0.0000000E+000	0.000000000000000E+000	-1.68324e-09
2	0	0	1	0	0	0	15.3	1.57199e-05	0.000132426	-0.00722399	-0.000223587	-0.000223587	13	-6.21075e-05	0	0.000000000000000E+000	1.04983e-11	0.000000000000000E+000	1.17082e+07	6.21075e-05	0.000000000000000E+000	6.21075e-05	0.0000000E+000	0.000000000000000E+000	-9.56647e-10
2	0	0	1	0	0	0	16.1	1.57199e-05	0.000227909	-0.00708392	-0.000229302	-0.000229302	13	-6.36949e-05	0	0.000000000000000E+000	1.07652e-11	0.000000000000000E+000	3.00187e+06	6.36949e-05	0.000000000000000E+000	6.36949e-05	0.0000000E+000	0.000000000000000E+000	-1.61449e-09
2	0	0	1	0	0	0	16.9	1.57199e-05	0.000132426	-0.0069594	-0.000234913	-0.000234913	13	-6.52535e-05	0	0.000000000000000E+000	1.09904e-11	0.000000000000000E+000	1.23013e+07	6.52535e-05	0.000000000000000E+000	6.52535e-05	0.0000000E+000	0.000000000000000E+000	-9.21608e-10
2	0	0	1	0	0	0	17.7	1.57199e-05	0.000132426	-0.00685409	-0.000240431	-0.000240431	13	-6.67863e-05	0	0.000000000000000E+000	1.12407e-11	0.000000000000000E+000	1.25903e+07	6.67863e-05	0.000000000000000E+000	6.67863e-05	0.0000000E+000	0.000000000000000E+000	-9.07663e-10
2	0	0	1	0	0	0	18.5	1.57199e-05	0.000266102	-0.00675696	-0.000245869	-0.000245869	13	-6.82969e-05	0	0.000000000000000E+000	1.15234e-11	0.000000000000000E+000	2.14584e+06	6.82969e-05	0.000000000000000E+000	6.82969e-05	0.0000000E+000	0.000000000000000E+000	-1.79804e-09
2	0	0	1	0	0	0	19.3	1.57199e-05	0.000323392	-0.0066756	-0.000251237	-0.000251237	13	-6.9788e-05	0	0.000000000000000E+000	1.18597e-11	0.000000000000000E+000	1.46179e+06	6.9788e-05	0.000000000000000E+000	6.9788e-05	0.0000000E+000	0.000000000000000E+000	-2.15883e-09
2	0	0	1	0	0	0	20.1	1.57199e-05	0.000304295	-0.0066042	-0.000256544	-0.000256544	13	-7.12622e-05	0	0.000000000000000E+000	1.22343e-11	0.000000000000000E+000	1.67926e+06	7.12622e-05	0.000000000000000E+000	7.12622e-05	0.0000000E+000	0.000000000000000E+000	-2.00963e-09
2	0	0	1	0	0	0	20.9	1.57199e-05	0.000132426	-0.00654196	-0.000261799	-0.000261799	13	-7.27219e-05	0	0.000000000000000E+000	1.25009e-11	0.000000000000000E+000	1.37092e+07	7.27219e-05	0.000000000000000E+000	7.27219e-05	0.0000000E+000	0.000000000000000E+000	-8.66328e-10
2	0	0	1	0	0	0	21.7	1.57199e-05	0.000247006	-0.00648951	-0.000267008	-0.000267008	13	-7.41689e-05	0	0.000000000000000E+000	1.27995e-11	0.000000000000000E+000	2.7964e+06	7.41689e-05	0.000000000000000E+000	7.41689e-05	0.0000000E+000	0.000000000000000E+000	-1.60295e-09
2	0	0	1	0	0	0	22.5	1.57199e-05	0.000189716	-0.00644404	-0.000272179	-0.000272179	13	-7.56052e-05	0	0.000000000000000E+000	1.3e-11	0.000000000000000E+000	7.12639e+06	7.56052e-05	0.000000000000000E+000	7.56052e-05	0.0000000E+000	0.000000000000000E+000	-1.22254e-09
2	0	0	1	0	0	0	23.3	1.57199e-05	0.000151523	-0.00640191	-0.000277315	-0.000277315	13	-7.70321e-05	0	0.000000000000000E+000	1.32333e-11	0.000000000000000E+000	0.000000000000000E+000	7.70321e-05	0.000000000000000E+000	7.70321e-05	0.0000000E+000	0.000000000000000E+000	-9.70037e-10
2	0	0	1	0	0	0	24.1	1.57199e-05	0.000170619	-0.006367	-0.000282421	-0.000282421	13	-7.84504e-05	0	0.000000000000000E+000	1.34617e-11	0.000000000000000E+000	1.47891e+07	7.84504e-05	0.000000000000000E+000	7.84504e-05	0.0000000E+000	0.000000000000000E+000	-1.08633e-09
2	0	0	1	0	0	0	24.9	1.57199e-05	5.60402e-05	-0.00633463	-0.0002875	-0.0002875	13	-7.98612e-05	0	0.000000000000000E+000	1.37395e-11	0.000000000000000E+000	3.01102e+06	7.98612e-05	0.000000000000000E+000	7.98612e-05	0.0000000E+000	0.000000000000000E+000	-3.54994e-10
2	0	0	1	0	0	0	25.7	1.57199e-05	0.000247006	-0.00630163	-0.000292553	-0.000292553	13	-8.12647e-05	0	0.000000000000000E+000	1.4046e-11	0.000000000000000E+000	3.06394e+06	8.12647e-05	0.000000000000000E+000	8.12647e-05	0.0000000E+000	0.000000000000000E+000	-1.55654e-09
2	0	0	1	0	0	0	26.5	1.57199e-05	0.000208813	-0.00626939	-0.00029758	-0.00029758	13	-8.2661e-05	0	0.000000000000000E+000	1.43275e-11	0.000000000000000E+000	5.1943e+06	8.2661e-05	0.000000000000000E+000	8.2661e-05	0.0000000E+000	0.000000000000000E+000	-1.30913e-09
2	0	0	1	0	0	0	27.3	1.57199e-05	0.000208813	-0.00623755	-0.00030258	-0.00030258	13	-8.40501e-05	0	0.000000000000000E+000	1.46143e-11	0.000000000000000E+000	5.28159e+06	8.40501e-05	0.000000000000000E+000	8.40501e-05	0.0000000E+000	0.000000000000000E+000	-1.30248e-09
2	0	0	1	0	0	0	28.1	1.57199e-05	0.000170619	-0.00620575	-0.000307555	-0.000307555	13	-8.54321e-05	0	0.000000000000000E+000	1.48865e-11	0.000000000000000E+000	1.61053e+07	8.54321e-05	0.000000000000000E+000	8.54321e-05	0.0000000E+000	0.000000000000000E+000	-1.05882e-09
2	0	0	1	0	0	0	28.9	1.57199e-05	0.000285199	-0.00617071	-0.000312504	-0.000312504	13	-8.68067e-05	0	0.000000000000000E+000	1.51472e-11	0.000000000000000E+000	2.33778e+06	8.68067e-05	0.000000000000000E+000	8.68067e-05	0.0000000E+000	0.000000000000000E+000	-1.75988e-09
2	0	0	1	0	0	0	29.7	1.57199e-05	0.000247006	-0.00613396	-0.000317424	-0.000317424	13	-8.81734e-05	0	0.000000000000000E+000	1.5377e-11	0.000000000000000E+000	3.32442e+06	8.81734e-05	0.000000000000000E+000	8.81734e-05	0.0000000E+000	0.000000000000000E+000	-1.51512e-09
2	0	0	1	0	0	0	29.9998	1.57199e-05	0.000170619	-0.00612354	-0.000319261	-0.000319261	13	-8.86837e-05	0	0.000000000000000E+000	1.54738e-11	0.000000000000000E+000	1.67183e+07	8.86837e-05	0.000000000000000E+000	8.86837e-05	0.0000000E+000	0.000000000000000E+000	-1.0448e-09