File: Data/2025-02-10 exp 7 CV 50mvs_C05.mpt
EC-Lab ASCII FILE
Nb header lines : 59

Cyclic Voltammetry

Run on channel : 5 (SN 39658)
User :
CE vs. WE compliance from -10 V to 10 V
Electrode connection : standard
Potential control : Ewe
Ewe ctrl range : min = -2.50 V, max = 2.50 V
Safety Limits :
	Do not start on E overload
Acquisition started on : 02/10/2025 12:57:10.264
Loaded Setting File :  NONE
Saved on :
	File : 2025-02-10 exp 7 CV 50mvs_C05.mpr
	Directory : C:\Users\thefo\OneDrive\Documents\EC-Lab\Data\CHEM 451\
	Host : 172.24.113.132
Device : VSP (SN 1910)
Address : USB
EC-Lab for windows v11.46 (software)
Internet server v11.40 (firmware)
Command interpretor v11.40 (firmware)
Electrode material : Au/Pd
Initial state :
Electrolyte : NaCl (0.2M)
Comments : Fe(CN)63-/Fe(CN)64- 5.10-3 M
Current amplifier : VSPB-4A
Reference electrode : SCE Saturated Calomel Electrode (0.241 V)
Electrode surface area : 0.001 cm²
Characteristic mass : 0.001 g
Equivalent Weight : 0.000 g/eq.
Density : 0.000 g/cm3
Volume (V) : 0.001 cm³
Cycle Definition : Charge/Discharge alternance
Ei (V)              0.000
vs.                 Eoc
dE/dt               50.000
dE/dt unit          mV/s
E1 (V)              -0.200
vs.                 Ref
Step percent        50
N                   10
E range min (V)     -2.500
E range max (V)     2.500
I Range             Auto
I Range min         Unset
I Range max         Unset
I Range init        Unset
Bandwidth           4
E2 (V)              0.500
vs.                 Ref
nc cycles           0
Reverse Scan        1
Ef (V)              0.000
vs.                 Ref

mode	ox/red	error	control changes	counter inc.	time/s	control/V	Ewe/V	<I>/mA	cycle number	(Q-Qo)/C	I Range	P/W
2	0	0	1	0	0.000000000000000E+000	0.29408	0.294296	-0.000315118	1	0.0000000E+000	14	-9.27377e-08
2	0	0	0	0	0.2712	0.280525	0.280709	-0.00388809	1	-6.60982e-07	14	-1.09142e-06
2	0	0	0	0	0.5512	0.266521	0.266705	-0.00666098	1	-2.13401e-06	14	-1.77652e-06
2	0	0	1	0	0.8314	0.252516	0.252684	-0.00990797	1	-4.44363e-06	14	-2.50359e-06
2	0	0	1	0	1.1414	0.237011	0.237218	-0.0141024	1	-8.15747e-06	13	-3.34535e-06
2	0	0	0	0	1.4216	0.223006	0.223178	-0.0182843	1	-1.27205e-05	13	-4.08065e-06
2	0	0	0	0	1.7016	0.209002	0.209214	-0.0221696	1	-1.84271e-05	13	-4.6382e-06
2	0	0	1	0	1.9818	0.194997	0.195159	-0.0251149	1	-2.51084e-05	13	-4.90141e-06
2	0	0	1	0	2.2618	0.180993	0.181219	-0.0267663	1	-3.24341e-05	13	-4.85055e-06
2	0	0	0	0	2.542	0.166988	0.167175	-0.0271594	1	-4.00494e-05	13	-4.54038e-06
2	0	0	0	0	2.822	0.152984	0.1532	-0.0266775	1	-4.76351e-05	13	-4.08698e-06
2	0	0	1	0	3.1021	0.138984	0.139166	-0.0256562	1	-5.50045e-05	13	-3.57046e-06
2	0	0	1	0	3.3822	0.124975	0.125148	-0.0244333	1	-6.20538e-05	13	-3.05778e-06
2	0	0	1	0	3.6622	0.11097	0.111197	-0.0231728	1	-6.87463e-05	13	-2.57674e-06
2	0	0	0	0	3.9424	0.0969657	0.0971365	-0.0219959	1	-7.50985e-05	13	-2.1366e-06
2	0	0	0	0	4.2224	0.0829611	0.0831461	-0.0209874	1	-8.11404e-05	13	-1.74502e-06
2	0	0	1	0	4.5026	0.0689566	0.0691293	-0.0201504	1	-8.69283e-05	13	-1.39298e-06
2	0	0	1	0	4.7826	0.0549521	0.055122	-0.0194682	1	-9.24998e-05	13	-1.07313e-06
2	0	0	0	0	5.0628	0.0409475	0.0411136	-0.0188848	1	-9.79005e-05	13	-7.76423e-07
2	0	0	0	0	5.3428	0.026943	0.0272028	-0.0184272	1	-0.000103154	13	-5.01272e-07
2	0	0	1	0	5.623	0.0129385	0.0131138	-0.0180469	1	-0.000108293	13	-2.36664e-07
2	0	0	1	0	5.903	-0.00106606	-0.000863777	-0.0177253	1	-0.000113331	13	1.53107e-08
2	0	0	1	0	6.1831	-0.0150684	-0.014951	-0.0174602	1	-0.000118291	13	2.61048e-07
2	0	0	0	0	6.4632	-0.0290751	-0.0289665	-0.0172375	1	-0.000123181	13	4.9931e-07
2	0	0	0	0	6.7432	-0.0430797	-0.0429409	-0.0170602	1	-0.000128012	13	7.32581e-07
2	0	0	1	0	7.0234	-0.0570842	-0.0569599	-0.0168972	1	-0.000132798	13	9.62462e-07
2	0	0	1	0	7.3034	-0.0710888	-0.0709778	-0.0167752	1	-0.000137542	13	1.19066e-06
2	0	0	0	0	7.5836	-0.0850933	-0.0849947	-0.0166687	1	-0.000142255	13	1.41675e-06
2	0	0	0	0	7.8636	-0.0990978	-0.0990243	-0.0165753	1	-0.000146939	13	1.64135e-06
2	0	0	1	0	8.1438	-0.113102	-0.113006	-0.0165022	1	-0.000151602	13	1.86485e-06
2	0	0	1	0	8.4238	-0.127107	-0.126963	-0.0164389	1	-0.000156244	13	2.08713e-06
2	0	0	0	0	8.704	-0.141111	-0.140981	-0.0163993	1	-0.000160876	13	2.312e-06
2	0	0	0	0	8.984	-0.155116	-0.155015	-0.0163634	1	-0.000165493	13	2.53657e-06
2	0	0	1	0	9.2641	-0.169122	-0.169051	-0.0163489	1	-0.000170104	13	2.7638e-06
2	0	0	1	0	9.5442	-0.183125	-0.183013	-0.0163454	1	-0.000174713	13	2.99141e-06
2	0	0	1	0	9.8242	-0.19713	-0.197071	-0.0163776	1	-0.000179321	13	3.22756e-06
2	0	0	0	0	10.0728	-0.190427	-0.190309	-0.0127838	1	-0.000182909	13	2.43286e-06
2	0	0	0	0	10.3528	-0.176423	-0.176269	-0.0109507	1	-0.00018618	13	1.93026e-06
2	0	0	1	0	10.633	-0.162418	-0.16227	-0.00969673	1	-0.000189036	13	1.57349e-06
2	0	0	1	0	10.913	-0.148414	-0.148326	-0.00874507	1	-0.000191584	13	1.29712e-06
2	0	0	0	0	11.1932	-0.134409	-0.134272	-0.00795078	1	-0.000193889	13	1.06757e-06
2	0	0	0	0	11.4732	-0.120405	-0.120271	-0.00726006	1	-0.000195989	13	8.73176e-07
2	0	0	1	0	11.7534	-0.1064	-0.106238	-0.00669309	1	-0.000197913	13	7.11063e-07
2	0	0	1	0	12.0334	-0.0923957	-0.0922715	-0.00615879	1	-0.000199681	13	5.68281e-07
2	0	0	1	0	12.3134	-0.0783911	-0.078244	-0.00568855	1	-0.00020131	13	4.45095e-07
2	0	0	0	0	12.5936	-0.0643866	-0.0642113	-0.00526569	1	-0.000202815	13	3.38117e-07
2	0	0	0	0	12.8736	-0.050382	-0.0502039	-0.00486641	1	-0.000204204	13	2.44313e-07
2	0	0	1	0	13.1538	-0.0363775	-0.0361924	-0.00452044	1	-0.000205489	13	1.63606e-07
2	0	0	1	0	13.4638	-0.0208725	-0.020721	-0.00403225	1	-0.000206797	14	8.35523e-08
2	0	0	0	0	13.744	-0.00686794	-0.00668928	-0.00371035	1	-0.00020788	14	2.48196e-08
2	0	0	0	0	14.024	0.0071366	0.00735516	-0.00339486	1	-0.000208871	14	-2.49697e-08
2	0	0	1	0	14.3042	0.0211411	0.021354	-0.0030935	1	-0.00020978	14	-6.60585e-08
2	0	0	1	0	14.5842	0.0351457	0.0354228	-0.0027924	1	-0.000210604	14	-9.89148e-08
2	0	0	0	0	14.8644	0.0491502	0.0494163	-0.00247517	1	-0.000211342	14	-1.22314e-07
2	0	0	0	0	15.1444	0.0631547	0.0633876	-0.00213367	1	-0.000211988	14	-1.35248e-07
2	0	0	1	0	15.4245	0.0771637	0.0774513	-0.00174833	1	-0.000212533	14	-1.35411e-07
2	0	0	1	0	15.7046	0.0911638	0.0913693	-0.00128812	1	-0.00021296	14	-1.17695e-07
2	0	0	1	0	15.9846	0.105168	0.105386	-0.000719425	1	-0.000213242	14	-7.58175e-08
2	0	0	0	0	16.2648	0.119173	0.119449	5.2029e-05	1	-0.000213339	14	6.21479e-09
2	1	0	0	0	16.5448	0.133177	0.133438	0.00110632	1	-0.000213182	14	1.47625e-07
2	1	0	1	0	16.825	0.147182	0.147413	0.00257412	1	-0.000212676	14	3.7946e-07
2	1	0	1	0	17.105	0.161186	0.161435	0.00462667	1	-0.000211682	14	7.46904e-07
2	1	0	0	0	17.3852	0.175191	0.175447	0.00738823	1	-0.000210016	14	1.29624e-06
2	1	0	0	0	17.6652	0.189196	0.189398	0.0108526	1	-0.000207476	14	2.05546e-06
2	1	0	1	0	17.9754	0.204701	0.204953	0.0151027	1	-0.00020345	13	3.09535e-06
2	1	0	1	0	18.2554	0.218705	0.218955	0.0188731	1	-0.000198654	13	4.13238e-06
2	1	0	0	0	18.5356	0.23271	0.232951	0.0216372	1	-0.000192923	13	5.0404e-06
2	1	0	0	0	18.8156	0.246714	0.246904	0.0230203	1	-0.000186607	13	5.6838e-06
2	1	0	0	0	19.0956	0.260719	0.260918	0.023061	1	-0.000180099	13	6.01704e-06
2	1	0	1	0	19.3758	0.274723	0.274989	0.0221719	1	-0.00017372	13	6.09703e-06
2	1	0	1	0	19.6558	0.288728	0.288987	0.0208471	1	-0.000167665	13	6.02454e-06
2	1	0	0	0	19.936	0.302732	0.303	0.0194319	1	-0.000161994	13	5.88786e-06
2	1	0	0	0	20.216	0.316737	0.31699	0.0181391	1	-0.000156708	13	5.7499e-06
2	1	0	1	0	20.4962	0.330741	0.330988	0.0169987	1	-0.000151757	13	5.62636e-06
2	1	0	1	0	20.7762	0.344746	0.344971	0.016037	1	-0.000147103	13	5.53231e-06
2	1	0	0	0	21.0564	0.35875	0.358958	0.0152047	1	-0.000142695	13	5.45785e-06
2	1	0	0	0	21.3364	0.372755	0.372981	0.0145004	1	-0.000138506	13	5.40838e-06
2	1	0	1	0	21.6166	0.38676	0.386976	0.0138655	1	-0.000134501	13	5.36563e-06
2	1	0	1	0	21.8966	0.400764	0.400953	0.0133244	1	-0.000130663	13	5.34247e-06
2	1	0	1	0	22.1766	0.414769	0.415007	0.0128401	1	-0.00012697	13	5.32871e-06
2	1	0	0	0	22.4568	0.428773	0.429043	0.0124088	1	-0.000123402	13	5.32389e-06
2	1	0	0	0	22.7368	0.442778	0.442997	0.0120345	1	-0.000119949	13	5.33123e-06
2	1	0	1	0	23.017	0.456782	0.457085	0.0117138	1	-0.000116592	13	5.35421e-06
2	1	0	1	0	23.297	0.470787	0.47105	0.0114067	1	-0.000113325	13	5.37313e-06
2	1	0	0	0	23.5772	0.484791	0.485071	0.0111694	1	-0.000110131	13	5.41797e-06
2	1	0	0	0	23.8572	0.498796	0.499094	0.0109598	1	-0.000107005	13	5.46997e-06
2	1	0	0	1	24.0916	0.489493	0.489665	0.00803994	1	-0.000104874	13	3.93688e-06
2	1	0	1	1	24.3718	0.475488	0.475672	0.0065579	1	-0.000102877	13	3.11941e-06
2	1	0	1	1	24.6518	0.461484	0.461703	0.00551138	1	-0.000101228	13	2.54462e-06
2	1	0	1	1	24.9319	0.447484	0.447723	0.00467215	1	-9.98423e-05	13	2.09183e-06
2	1	0	0	1	25.242	0.431974	0.43221	0.00377278	1	-9.85545e-05	14	1.63063e-06
2	1	0	0	1	25.522	0.41797	0.418152	0.00315345	1	-9.75874e-05	14	1.31862e-06
2	1	0	1	1	25.8022	0.403965	0.404116	0.00259899	1	-9.67826e-05	14	1.05029e-06
2	1	0	1	1	26.0822	0.389961	0.390136	0.00207568	1	-9.61293e-05	14	8.09796e-07
2	1	0	0	1	26.3624	0.375956	0.376134	0.00156131	1	-9.56205e-05	14	5.8726e-07
2	1	0	0	1	26.6424	0.361951	0.362115	0.00102575	1	-9.52581e-05	14	3.7144e-07
2	1	0	1	1	26.9226	0.347947	0.348131	0.000459651	1	-9.50492e-05	14	1.60019e-07
2	0	0	1	1	27.2026	0.333942	0.334098	-0.000196754	1	-9.50125e-05	14	-6.57351e-08
2	0	0	0	1	27.4828	0.319938	0.320103	-0.000992593	1	-9.51775e-05	14	-3.17732e-07
2	0	0	0	1	27.7628	0.305933	0.30607	-0.00198844	1	-9.55903e-05	14	-6.08601e-07
2	0	0	1	1	28.043	0.291929	0.292104	-0.0032927	1	-9.63221e-05	14	-9.6181e-07
2	0	0	1	1	28.323	0.277924	0.278086	-0.00505852	1	-9.74797e-05	14	-1.4067e-06
2	0	0	1	1	28.603	0.26392	0.264154	-0.0074595	1	-9.92172e-05	14	-1.97045e-06
2	0	0	0	1	28.8832	0.249915	0.250081	-0.0105885	1	-0.000101728	14	-2.64799e-06
2	0	0	0	1	29.1932	0.23441	0.23461	-0.0147473	1	-0.000105644	13	-3.45988e-06
2	0	0	1	1	29.4734	0.220406	0.220603	-0.0188309	1	-0.000110376	13	-4.15415e-06
2	0	0	1	1	29.7534	0.206401	0.206619	-0.0224992	1	-0.00011621	13	-4.64877e-06
2	0	0	0	1	30.0336	0.192397	0.192637	-0.0251766	1	-0.000122948	13	-4.84996e-06
2	0	0	0	1	30.3136	0.178392	0.178591	-0.0265107	1	-0.000130242	13	-4.73457e-06
2	0	0	1	1	30.5938	0.164388	0.164591	-0.0266288	1	-0.000137741	13	-4.38286e-06
2	0	0	1	1	30.8738	0.150383	0.150554	-0.0259724	1	-0.000145147	13	-3.91024e-06
2	0	0	0	1	31.154	0.136378	0.13651	-0.0248505	1	-0.000152301	13	-3.39235e-06
2	0	0	0	1	31.434	0.122374	0.122525	-0.0235906	1	-0.000159113	13	-2.89044e-06
2	0	0	1	1	31.7141	0.10837	0.108566	-0.022287	1	-0.000165565	13	-2.41962e-06
2	0	0	1	1	31.9942	0.0943648	0.0945361	-0.0211034	1	-0.000171669	13	-1.99503e-06
2	0	0	1	1	32.2742	0.0803603	0.0805766	-0.0200931	1	-0.000177464	13	-1.61904e-06
2	0	0	0	1	32.5544	0.0663558	0.0665428	-0.0192365	1	-0.000183003	13	-1.28005e-06
2	0	0	0	1	32.8344	0.0523512	0.0525121	-0.0185451	1	-0.000188323	13	-9.73842e-07
2	0	0	1	1	33.1146	0.0383467	0.0385631	-0.0179789	1	-0.000193469	13	-6.93324e-07
2	0	0	1	1	33.3946	0.0243422	0.0245389	-0.0174962	1	-0.000198465	13	-4.29336e-07
2	0	0	0	1	33.6748	0.0103376	0.0104997	-0.0171021	1	-0.00020334	13	-1.79567e-07
2	0	0	0	1	33.8806	-1.57199e-05	0.000304295	-0.0169985	1	-0.000206854	13	-5.17256e-09