File: Data/2025-02-10 exp 4 potential step -0,5 V_C05.mpt
EC-Lab ASCII FILE
Nb header lines : 62

Chronoamperometry / Chronocoulometry

Run on channel : 5 (SN 39658)
User :
CE vs. WE compliance from -10 V to 10 V
Electrode connection : standard
Potential control : Ewe
Ewe ctrl range : min = -2.50 V, max = 2.50 V
Safety Limits :
	Do not start on E overload
Acquisition started on : 02/10/2025 12:42:49.649
Loaded Setting File :  NONE
Saved on :
	File : 2025-02-10 exp2 potential step -0,5 V_C05.mpr
	Directory : C:\Users\thefo\OneDrive\Documents\EC-Lab\Data\CHEM 451\
	Host : 172.24.113.132
Device : VSP (SN 1910)
Address : USB
EC-Lab for windows v11.46 (software)
Internet server v11.40 (firmware)
Command interpretor v11.40 (firmware)
Electrode material :
Initial state :
Electrolyte :
Comments :
Current amplifier : VSPB-4A
Electrode surface area : 0.001 cm²
Characteristic mass : 0.001 g
Equivalent Weight : 0.000 g/eq.
Density : 0.000 g/cm3
Volume (V) : 0.001 cm³
Cycle Definition : Charge/Discharge alternance
Ei (V)              -0.500
vs.                 Ref
ti (h:m:s)          0:00:30.0000
Imax                pass
unit Imax           mA
Imin                pass
unit Imin           mA
dQM                 0.000
unit dQM            mA.h
record              <I>
dI                  5.000
unit dI             µA
dQ                  0.000
unit dQ             mA.h
dt (s)              0.1000
dta (s)             0.1000
E range min (V)     -2.500
E range max (V)     2.500
I Range             Auto
I Range min         Unset
I Range max         Unset
I Range init        Unset
Bandwidth           4
goto Ns'            0
nc cycles           0

mode	ox/red	error	control changes	Ns changes	counter inc.	Ns	time/s	control/V	Ewe/V	<I>/mA	dQ/C	(Q-Qo)/C	I Range	Q charge/discharge/mA.h	half cycle	Energy charge/W.h	Energy discharge/W.h	Capacitance charge/µF	Capacitance discharge/µF	Q discharge/mA.h	Q charge/mA.h	Capacity/mA.h	Efficiency/%	cycle number	P/W
2	0	0	0	0	0	0	0.1	-0.499978	-0.499796	-0.226418	-1.68425e-05	-1.68425e-05	12	-4.67848e-06	0	0.000000000000000E+000	2.33828e-09	0.000000000000000E+000	0.000000000000000E+000	4.67848e-06	0.000000000000000E+000	4.67848e-06	0.0000000E+000	0.000000000000000E+000	0.000113163
2	0	0	0	0	0	0	0.9	-0.499978	-0.499815	-0.0625786	-9.30031e-05	-9.30031e-05	12	-2.58342e-05	0	0.000000000000000E+000	1.29134e-08	0.000000000000000E+000	4.86844e+06	2.58342e-05	0.000000000000000E+000	2.58342e-05	0.0000000E+000	0.000000000000000E+000	3.12777e-05
2	0	0	0	0	0	0	1.7	-0.499978	-0.499968	-0.0429124	-0.000132928	-0.000132928	13	-3.69245e-05	0	0.000000000000000E+000	1.84574e-08	0.000000000000000E+000	773423	3.69245e-05	0.000000000000000E+000	3.69245e-05	0.0000000E+000	0.000000000000000E+000	2.14548e-05
2	0	0	0	0	0	0	2.5	-0.499978	-0.500044	-0.0343771	-0.000163065	-0.000163065	13	-4.52957e-05	0	0.000000000000000E+000	2.26426e-08	0.000000000000000E+000	656927	4.52957e-05	0.000000000000000E+000	4.52957e-05	0.0000000E+000	0.000000000000000E+000	1.71901e-05
2	0	0	0	0	0	0	3.3	-0.499978	-0.499815	-0.0294582	-0.000188201	-0.000188201	13	-5.2278e-05	0	0.000000000000000E+000	2.61329e-08	0.000000000000000E+000	9.85176e+06	5.2278e-05	0.000000000000000E+000	5.2278e-05	0.0000000E+000	0.000000000000000E+000	1.47237e-05
2	0	0	0	0	0	0	4.1	-0.499978	-0.499834	-0.0261976	-0.000210224	-0.000210224	13	-5.83957e-05	0	0.000000000000000E+000	2.91907e-08	0.000000000000000E+000	5.50231e+06	5.83957e-05	0.000000000000000E+000	5.83957e-05	0.0000000E+000	0.000000000000000E+000	1.30944e-05
2	0	0	0	0	0	0	4.9	-0.499978	-0.499853	-0.0238435	-0.00023008	-0.00023008	13	-6.39111e-05	0	0.000000000000000E+000	3.19476e-08	0.000000000000000E+000	4.01675e+06	6.39111e-05	0.000000000000000E+000	6.39111e-05	0.0000000E+000	0.000000000000000E+000	1.19182e-05
2	0	0	0	0	0	0	5.7	-0.499978	-0.499796	-0.0220373	-0.000248312	-0.000248312	13	-6.89756e-05	0	0.000000000000000E+000	3.44791e-08	0.000000000000000E+000	0.000000000000000E+000	6.89756e-05	0.000000000000000E+000	6.89756e-05	0.0000000E+000	0.000000000000000E+000	1.10142e-05
2	0	0	0	0	0	0	6.5	-0.499978	-0.499872	-0.0206078	-0.000265278	-0.000265278	13	-7.36883e-05	0	0.000000000000000E+000	3.68349e-08	0.000000000000000E+000	3.47298e+06	7.36883e-05	0.000000000000000E+000	7.36883e-05	0.0000000E+000	0.000000000000000E+000	1.03013e-05
2	0	0	0	0	0	0	7.3	-0.499978	-0.499834	-0.0194336	-0.000281222	-0.000281222	13	-7.81173e-05	0	0.000000000000000E+000	3.90487e-08	0.000000000000000E+000	7.36057e+06	7.81173e-05	0.000000000000000E+000	7.81173e-05	0.0000000E+000	0.000000000000000E+000	9.71358e-06
2	0	0	0	0	0	0	8.1	-0.499978	-0.49993	-0.0184473	-0.000296316	-0.000296316	13	-8.23099e-05	0	0.000000000000000E+000	4.11443e-08	0.000000000000000E+000	2.21688e+06	8.23099e-05	0.000000000000000E+000	8.23099e-05	0.0000000E+000	0.000000000000000E+000	9.22237e-06
2	0	0	0	0	0	0	8.9	-0.499978	-0.499968	-0.0175978	-0.000310684	-0.000310684	13	-8.63012e-05	0	0.000000000000000E+000	4.31397e-08	0.000000000000000E+000	1.80767e+06	8.63012e-05	0.000000000000000E+000	8.63012e-05	0.0000000E+000	0.000000000000000E+000	8.79833e-06
2	0	0	0	0	0	0	9.7	-0.499978	-0.499815	-0.0168531	-0.00032442	-0.00032442	13	-9.01167e-05	0	0.000000000000000E+000	4.50469e-08	0.000000000000000E+000	1.69824e+07	9.01167e-05	0.000000000000000E+000	9.01167e-05	0.0000000E+000	0.000000000000000E+000	8.42346e-06
2	0	0	0	0	0	0	10.5	-0.499978	-0.499891	-0.0162131	-0.00033761	-0.00033761	13	-9.37805e-05	0	0.000000000000000E+000	4.68783e-08	0.000000000000000E+000	3.53568e+06	9.37805e-05	0.000000000000000E+000	9.37805e-05	0.0000000E+000	0.000000000000000E+000	8.1048e-06
2	0	0	0	0	0	0	11.3	-0.499978	-0.499815	-0.0156383	-0.000350318	-0.000350318	13	-9.73104e-05	0	0.000000000000000E+000	4.86428e-08	0.000000000000000E+000	1.83381e+07	9.73104e-05	0.000000000000000E+000	9.73104e-05	0.0000000E+000	0.000000000000000E+000	7.81626e-06
2	0	0	0	0	0	0	12.1	-0.499978	-0.499853	-0.0151356	-0.000362596	-0.000362596	13	-0.000100721	0	0.000000000000000E+000	5.03477e-08	0.000000000000000E+000	6.33023e+06	0.000100721	0.000000000000000E+000	0.000100721	0.0000000E+000	0.000000000000000E+000	7.56555e-06
2	0	0	0	0	0	0	12.9	-0.499978	-0.499853	-0.0146816	-0.000374498	-0.000374498	13	-0.000104027	0	0.000000000000000E+000	5.20003e-08	0.000000000000000E+000	6.53801e+06	0.000104027	0.000000000000000E+000	0.000104027	0.0000000E+000	0.000000000000000E+000	7.33866e-06
2	0	0	0	0	0	0	13.7	-0.499978	-0.499834	-0.0142701	-0.000386055	-0.000386055	13	-0.000107237	0	0.000000000000000E+000	5.3605e-08	0.000000000000000E+000	1.01044e+07	0.000107237	0.000000000000000E+000	0.000107237	0.0000000E+000	0.000000000000000E+000	7.13267e-06
2	0	0	0	0	0	0	14.5	-0.499978	-0.499834	-0.0138942	-0.000397298	-0.000397298	13	-0.000110361	0	0.000000000000000E+000	5.51662e-08	0.000000000000000E+000	1.03987e+07	0.000110361	0.000000000000000E+000	0.000110361	0.0000000E+000	0.000000000000000E+000	6.9448e-06
2	0	0	0	0	0	0	15.3	-0.499978	-0.499872	-0.0135501	-0.000408258	-0.000408258	13	-0.000113405	0	0.000000000000000E+000	5.66881e-08	0.000000000000000E+000	5.34486e+06	0.000113405	0.000000000000000E+000	0.000113405	0.0000000E+000	0.000000000000000E+000	6.77334e-06
2	0	0	0	0	0	0	16.1	-0.499978	-0.499872	-0.0132342	-0.000418957	-0.000418957	13	-0.000116377	0	0.000000000000000E+000	5.81735e-08	0.000000000000000E+000	5.48492e+06	0.000116377	0.000000000000000E+000	0.000116377	0.0000000E+000	0.000000000000000E+000	6.61542e-06
2	0	0	0	0	0	0	16.9	-0.499978	-0.49991	-0.0129313	-0.000429409	-0.000429409	13	-0.00011928	0	0.000000000000000E+000	5.96249e-08	0.000000000000000E+000	3.74736e+06	0.00011928	0.000000000000000E+000	0.00011928	0.0000000E+000	0.000000000000000E+000	6.46448e-06
2	0	0	0	0	0	0	17.7	-0.499978	-0.499796	-0.0126531	-0.000439627	-0.000439627	13	-0.000122119	0	0.000000000000000E+000	6.10438e-08	0.000000000000000E+000	0.000000000000000E+000	0.000122119	0.000000000000000E+000	0.000122119	0.0000000E+000	0.000000000000000E+000	6.32398e-06
2	0	0	0	0	0	0	18.5	-0.499978	-0.499815	-0.012392	-0.000449631	-0.000449631	13	-0.000124898	0	0.000000000000000E+000	6.24328e-08	0.000000000000000E+000	2.35369e+07	0.000124898	0.000000000000000E+000	0.000124898	0.0000000E+000	0.000000000000000E+000	6.19372e-06
2	0	0	0	0	0	0	19.3	-0.499978	-0.499872	-0.0121573	-0.000459438	-0.000459438	13	-0.000127622	0	0.000000000000000E+000	6.37945e-08	0.000000000000000E+000	6.01489e+06	0.000127622	0.000000000000000E+000	0.000127622	0.0000000E+000	0.000000000000000E+000	6.07712e-06
2	0	0	0	0	0	0	20.1	-0.499978	-0.499834	-0.0119414	-0.000469065	-0.000469065	13	-0.000130296	0	0.000000000000000E+000	6.51312e-08	0.000000000000000E+000	1.22771e+07	0.000130296	0.000000000000000E+000	0.000130296	0.0000000E+000	0.000000000000000E+000	5.96873e-06
2	0	0	0	0	0	0	20.9	-0.499978	-0.499834	-0.0117353	-0.000478524	-0.000478524	13	-0.000132923	0	0.000000000000000E+000	6.64445e-08	0.000000000000000E+000	1.25246e+07	0.000132923	0.000000000000000E+000	0.000132923	0.0000000E+000	0.000000000000000E+000	5.86571e-06
2	0	0	0	0	0	0	21.7	-0.499978	-0.499796	-0.0115255	-0.000487818	-0.000487818	13	-0.000135505	0	0.000000000000000E+000	6.7735e-08	0.000000000000000E+000	0.000000000000000E+000	0.000135505	0.000000000000000E+000	0.000135505	0.0000000E+000	0.000000000000000E+000	5.76042e-06
2	0	0	0	0	0	0	22.5	-0.499978	-0.499739	-0.0113207	-0.000496945	-0.000496945	13	-0.00013804	0	0.000000000000000E+000	6.90021e-08	0.000000000000000E+000	8.6757e+06	0.00013804	0.000000000000000E+000	0.00013804	0.0000000E+000	0.000000000000000E+000	5.65737e-06
2	0	0	0	0	0	0	23.3	-0.499978	-0.499872	-0.0111414	-0.00050592	-0.00050592	13	-0.000140533	0	0.000000000000000E+000	7.02483e-08	0.000000000000000E+000	6.62344e+06	0.000140533	0.000000000000000E+000	0.000140533	0.0000000E+000	0.000000000000000E+000	5.56929e-06
2	0	0	0	0	0	0	24.1	-0.499978	-0.499796	-0.0109273	-0.000514734	-0.000514734	13	-0.000142982	0	0.000000000000000E+000	7.1472e-08	0.000000000000000E+000	0.000000000000000E+000	0.000142982	0.000000000000000E+000	0.000142982	0.0000000E+000	0.000000000000000E+000	5.4614e-06
2	0	0	0	0	0	0	24.9	-0.499978	-0.499949	-0.0107303	-0.000523384	-0.000523384	13	-0.000145384	0	0.000000000000000E+000	7.26731e-08	0.000000000000000E+000	3.42603e+06	0.000145384	0.000000000000000E+000	0.000145384	0.0000000E+000	0.000000000000000E+000	5.36458e-06
2	0	0	0	0	0	0	25.7	-0.499978	-0.499777	-0.0105662	-0.00053189	-0.00053189	13	-0.000147747	0	0.000000000000000E+000	7.38543e-08	0.000000000000000E+000	2.78429e+07	0.000147747	0.000000000000000E+000	0.000147747	0.0000000E+000	0.000000000000000E+000	5.28073e-06
2	0	0	0	0	0	0	26.5	-0.499978	-0.499949	-0.010402	-0.000540267	-0.000540267	13	-0.000150074	0	0.000000000000000E+000	7.50175e-08	0.000000000000000E+000	3.53655e+06	0.000150074	0.000000000000000E+000	0.000150074	0.0000000E+000	0.000000000000000E+000	5.20048e-06
2	0	0	0	0	0	0	27.3	-0.499978	-0.499815	-0.0102578	-0.000548523	-0.000548523	13	-0.000152367	0	0.000000000000000E+000	7.61639e-08	0.000000000000000E+000	2.87135e+07	0.000152367	0.000000000000000E+000	0.000152367	0.0000000E+000	0.000000000000000E+000	5.12698e-06
2	0	0	0	0	0	0	28.1	-0.499978	-0.499853	-0.0101232	-0.000556667	-0.000556667	13	-0.00015463	0	0.000000000000000E+000	7.72947e-08	0.000000000000000E+000	9.71833e+06	0.00015463	0.000000000000000E+000	0.00015463	0.0000000E+000	0.000000000000000E+000	5.06013e-06
2	0	0	0	0	0	0	28.9	-0.499978	-0.499949	-0.00999148	-0.000564707	-0.000564707	13	-0.000156863	0	0.000000000000000E+000	7.84111e-08	0.000000000000000E+000	3.69653e+06	0.000156863	0.000000000000000E+000	0.000156863	0.0000000E+000	0.000000000000000E+000	4.99523e-06
2	0	0	0	0	0	0	29.7	-0.499978	-0.49991	-0.00985751	-0.000572639	-0.000572639	13	-0.000159066	0	0.000000000000000E+000	7.95126e-08	0.000000000000000E+000	4.99729e+06	0.000159066	0.000000000000000E+000	0.000159066	0.0000000E+000	0.000000000000000E+000	4.92787e-06
2	0	0	0	0	0	0	29.9998	-0.499978	-0.49993	-0.00980795	-0.000575585	-0.000575585	13	-0.000159885	0	0.000000000000000E+000	7.99216e-08	0.000000000000000E+000	4.30622e+06	0.000159885	0.000000000000000E+000	0.000159885	0.0000000E+000	0.000000000000000E+000	4.90328e-06