File: Data/2025-02-10 exp 13 bonus_C05.mpt
EC-Lab ASCII FILE
Nb header lines : 62

Chronoamperometry / Chronocoulometry

Run on channel : 5 (SN 39658)
User :
CE vs. WE compliance from -10 V to 10 V
Electrode connection : standard
Potential control : Ewe
Ewe ctrl range : min = -2.50 V, max = 2.50 V
Safety Limits :
	Do not start on E overload
Acquisition started on : 02/10/2025 13:16:06.971
Loaded Setting File :  NONE
Saved on :
	File : 2025-02-10 exp 13 bonus_C05.mpr
	Directory : C:\Users\thefo\OneDrive\Documents\EC-Lab\Data\CHEM 451\
	Host : 172.24.113.132
Device : VSP (SN 1910)
Address : USB
EC-Lab for windows v11.46 (software)
Internet server v11.40 (firmware)
Command interpretor v11.40 (firmware)
Electrode material :
Initial state :
Electrolyte :
Comments :
Current amplifier : VSPB-4A
Electrode surface area : 0.001 cm²
Characteristic mass : 0.001 g
Equivalent Weight : 0.000 g/eq.
Density : 0.000 g/cm3
Volume (V) : 0.001 cm³
Cycle Definition : Charge/Discharge alternance
Ei (V)              -0.100
vs.                 Ref
ti (h:m:s)          2:00:10.0000
Imax                pass
unit Imax           mA
Imin                pass
unit Imin           mA
dQM                 0.000
unit dQM            mA.h
record              <I>
dI                  5.000
unit dI             µA
dQ                  0.000
unit dQ             mA.h
dt (s)              0.1000
dta (s)             0.1000
E range min (V)     -2.500
E range max (V)     2.500
I Range             Auto
I Range min         Unset
I Range max         Unset
I Range init        Unset
Bandwidth           4
goto Ns'            0
nc cycles           0

mode	ox/red	error	control changes	Ns changes	counter inc.	Ns	time/s	control/V	Ewe/V	<I>/mA	dQ/C	(Q-Qo)/C	I Range	Q charge/discharge/mA.h	half cycle	Energy charge/W.h	Energy discharge/W.h	Capacitance charge/µF	Capacitance discharge/µF	Q discharge/mA.h	Q charge/mA.h	Capacity/mA.h	Efficiency/%	cycle number	P/W
2	0	0	0	0	0	0	0.1	-0.0999884	-0.0999257	-0.142054	-1.31323e-05	-1.31323e-05	12	-3.64786e-06	0	0.000000000000000E+000	3.64515e-10	0.000000000000000E+000	0.000000000000000E+000	3.64786e-06	0.000000000000000E+000	3.64786e-06	0.0000000E+000	0.000000000000000E+000	1.41949e-05
2	0	0	0	0	0	0	4.5	-0.0999884	-0.0999257	-0.0144395	-0.000136878	-0.000136878	13	-3.80218e-05	0	0.000000000000000E+000	3.79867e-09	0.000000000000000E+000	0.000000000000000E+000	3.80218e-05	0.000000000000000E+000	3.80218e-05	0.0000000E+000	0.000000000000000E+000	1.44288e-06
2	0	0	0	0	0	0	8.9	-0.0999884	-0.0999639	-0.00972445	-0.000187838	-0.000187838	13	-5.21772e-05	0	0.000000000000000E+000	5.21276e-09	0.000000000000000E+000	4.9183e+06	5.21772e-05	0.000000000000000E+000	5.21772e-05	0.0000000E+000	0.000000000000000E+000	9.72093e-07
2	0	0	0	0	0	0	13.3	-0.0999884	-0.0999257	-0.00783905	-0.000225913	-0.000225913	13	-6.27537e-05	0	0.000000000000000E+000	6.26957e-09	0.000000000000000E+000	0.000000000000000E+000	6.27537e-05	0.000000000000000E+000	6.27537e-05	0.0000000E+000	0.000000000000000E+000	7.83323e-07
2	0	0	0	0	0	0	17.7	-0.0999884	-0.099983	-0.00678327	-0.000257849	-0.000257849	13	-7.16246e-05	0	0.000000000000000E+000	7.15593e-09	0.000000000000000E+000	4.50037e+06	7.16246e-05	0.000000000000000E+000	7.16246e-05	0.0000000E+000	0.000000000000000E+000	6.78212e-07
2	0	0	0	0	0	0	22.1	-0.0999884	-0.0999257	-0.0060872	-0.000286031	-0.000286031	13	-7.94531e-05	0	0.000000000000000E+000	7.9381e-09	0.000000000000000E+000	0.000000000000000E+000	7.94531e-05	0.000000000000000E+000	7.94531e-05	0.0000000E+000	0.000000000000000E+000	6.08268e-07
2	0	0	0	0	0	0	26.5	-0.0999884	-0.0997729	-0.00558748	-0.000311634	-0.000311634	13	-8.6565e-05	0	0.000000000000000E+000	8.64867e-09	0.000000000000000E+000	2.03993e+06	8.6565e-05	0.000000000000000E+000	8.6565e-05	0.0000000E+000	0.000000000000000E+000	5.57479e-07
2	0	0	0	0	0	0	30.9	-0.0999884	-0.0999066	-0.00521073	-0.000335335	-0.000335335	13	-9.31486e-05	0	0.000000000000000E+000	9.30656e-09	0.000000000000000E+000	1.75606e+07	9.31486e-05	0.000000000000000E+000	9.31486e-05	0.0000000E+000	0.000000000000000E+000	5.20586e-07
2	0	0	0	0	0	0	35.3	-0.0999884	-0.100002	-0.0049161	-0.000357571	-0.000357571	13	-9.93253e-05	0	0.000000000000000E+000	9.92373e-09	0.000000000000000E+000	4.68081e+06	9.93253e-05	0.000000000000000E+000	9.93253e-05	0.0000000E+000	0.000000000000000E+000	4.9162e-07
2	0	0	0	0	0	0	39.7	-0.0999884	-0.0999257	-0.00467463	-0.000378643	-0.000378643	13	-0.000105179	0	0.000000000000000E+000	1.05086e-08	0.000000000000000E+000	0.000000000000000E+000	0.000105179	0.000000000000000E+000	0.000105179	0.0000000E+000	0.000000000000000E+000	4.67115e-07
2	0	0	0	0	0	0	44.1084	-0.0999884	-0.100002	-0.0044681	-0.000398786	-0.000398786	14	-0.000110774	0	0.000000000000000E+000	1.10677e-08	0.000000000000000E+000	5.22035e+06	0.000110774	0.000000000000000E+000	0.000110774	0.0000000E+000	0.000000000000000E+000	4.46819e-07
2	0	0	0	0	0	0	48.5084	-0.0999884	-0.0999257	-0.00430016	-0.000418057	-0.000418057	14	-0.000116127	0	0.000000000000000E+000	1.16025e-08	0.000000000000000E+000	0.000000000000000E+000	0.000116127	0.000000000000000E+000	0.000116127	0.0000000E+000	0.000000000000000E+000	4.29697e-07
2	0	0	0	0	0	0	52.9084	-0.0999884	-0.0999257	-0.00415364	-0.000436639	-0.000436639	14	-0.000121289	0	0.000000000000000E+000	1.21183e-08	0.000000000000000E+000	0.000000000000000E+000	0.000121289	0.000000000000000E+000	0.000121289	0.0000000E+000	0.000000000000000E+000	4.15055e-07
2	0	0	0	0	0	0	57.3084	-0.0999884	-0.0998875	-0.00402748	-0.000454625	-0.000454625	14	-0.000126285	0	0.000000000000000E+000	1.26174e-08	0.000000000000000E+000	1.19038e+07	0.000126285	0.000000000000000E+000	0.000126285	0.0000000E+000	0.000000000000000E+000	4.02295e-07
2	0	0	0	0	0	0	61.7084	-0.0999884	-0.0998684	-0.00391515	-0.000472088	-0.000472088	14	-0.000131135	0	0.000000000000000E+000	1.31021e-08	0.000000000000000E+000	8.24067e+06	0.000131135	0.000000000000000E+000	0.000131135	0.0000000E+000	0.000000000000000E+000	3.91e-07
2	0	0	0	0	0	0	66.1084	-0.0999884	-0.0999448	-0.00381712	-0.000489089	-0.000489089	14	-0.000135858	0	0.000000000000000E+000	1.3574e-08	0.000000000000000E+000	2.56123e+07	0.000135858	0.000000000000000E+000	0.000135858	0.0000000E+000	0.000000000000000E+000	3.81501e-07
2	0	0	0	0	0	0	70.5084	-0.0999884	-0.099983	-0.00372784	-0.00050568	-0.00050568	14	-0.000140467	0	0.000000000000000E+000	1.40346e-08	0.000000000000000E+000	8.8259e+06	0.000140467	0.000000000000000E+000	0.000140467	0.0000000E+000	0.000000000000000E+000	3.72721e-07
2	0	0	0	0	0	0	74.9084	-0.0999884	-0.0999257	-0.00364941	-0.000521903	-0.000521903	14	-0.000144973	0	0.000000000000000E+000	1.44848e-08	0.000000000000000E+000	0.000000000000000E+000	0.000144973	0.000000000000000E+000	0.000144973	0.0000000E+000	0.000000000000000E+000	3.6467e-07
2	0	0	0	0	0	0	79.3084	-0.0999884	-0.0998111	-0.00357802	-0.000537798	-0.000537798	14	-0.000149388	0	0.000000000000000E+000	1.4926e-08	0.000000000000000E+000	4.69385e+06	0.000149388	0.000000000000000E+000	0.000149388	0.0000000E+000	0.000000000000000E+000	3.57127e-07
2	0	0	0	0	0	0	83.7084	-0.0999884	-0.099792	-0.00351603	-0.000553399	-0.000553399	14	-0.000153722	0	0.000000000000000E+000	1.53588e-08	0.000000000000000E+000	4.14001e+06	0.000153722	0.000000000000000E+000	0.000153722	0.0000000E+000	0.000000000000000E+000	3.50872e-07
2	0	0	0	0	0	0	88.1084	-0.0999884	-0.099983	-0.00423028	-0.000568835	-0.000568835	14	-0.00015801	0	0.000000000000000E+000	1.57873e-08	0.000000000000000E+000	9.92819e+06	0.00015801	0.000000000000000E+000	0.00015801	0.0000000E+000	0.000000000000000E+000	4.22956e-07
2	0	0	0	0	0	0	92.5084	-0.0999884	-0.0999448	-0.0525005	-0.000715381	-0.000715381	13	-0.000198717	0	0.000000000000000E+000	1.98518e-08	0.000000000000000E+000	3.74627e+07	0.000198717	0.000000000000000E+000	0.000198717	0.0000000E+000	0.000000000000000E+000	5.24715e-06
2	0	0	0	0	0	0	96.9084	-0.0999884	-0.10004	-0.0539442	-0.000950134	-0.000950134	13	-0.000263926	0	0.000000000000000E+000	2.63714e-08	0.000000000000000E+000	8.29214e+06	0.000263926	0.000000000000000E+000	0.000263926	0.0000000E+000	0.000000000000000E+000	5.39659e-06
2	0	0	0	0	0	0	101.308	-0.0999884	-0.10004	-0.0518366	-0.00118313	-0.00118313	13	-0.000328648	0	0.000000000000000E+000	3.28398e-08	0.000000000000000E+000	1.03256e+07	0.000328648	0.000000000000000E+000	0.000328648	0.0000000E+000	0.000000000000000E+000	5.18575e-06
2	0	0	0	0	0	0	105.708	-0.0999884	-0.0999257	-0.0166108	-0.00133968	-0.00133968	13	-0.000372135	0	0.000000000000000E+000	3.71855e-08	0.000000000000000E+000	0.000000000000000E+000	0.000372135	0.000000000000000E+000	0.000372135	0.0000000E+000	0.000000000000000E+000	1.65984e-06
2	0	0	0	0	0	0	110.108	-0.0999884	-0.0999257	-0.0103183	-0.00139646	-0.00139646	13	-0.000387905	0	0.000000000000000E+000	3.87613e-08	0.000000000000000E+000	0.000000000000000E+000	0.000387905	0.000000000000000E+000	0.000387905	0.0000000E+000	0.000000000000000E+000	1.03106e-06
2	0	0	0	0	0	0	114.508	-0.0999884	-0.100021	-0.00808719	-0.00143627	-0.00143627	13	-0.000398963	0	0.000000000000000E+000	3.98662e-08	0.000000000000000E+000	1.50415e+07	0.000398963	0.000000000000000E+000	0.000398963	0.0000000E+000	0.000000000000000E+000	8.0889e-07
2	0	0	0	0	0	0	118.908	-0.0999884	-0.0999066	-0.00694081	-0.00146902	-0.00146902	13	-0.000408061	0	0.000000000000000E+000	4.07754e-08	0.000000000000000E+000	7.69287e+07	0.000408061	0.000000000000000E+000	0.000408061	0.0000000E+000	0.000000000000000E+000	6.93433e-07
2	0	0	0	0	0	0	123.308	-0.0999884	-0.0999066	-0.00624666	-0.00149789	-0.00149789	13	-0.00041608	0	0.000000000000000E+000	4.15768e-08	0.000000000000000E+000	7.84406e+07	0.00041608	0.000000000000000E+000	0.00041608	0.0000000E+000	0.000000000000000E+000	6.24083e-07
2	0	0	0	0	0	0	127.708	-0.0999884	-0.0999639	-0.0148247	-0.00152984	-0.00152984	13	-0.000424954	0	0.000000000000000E+000	4.24635e-08	0.000000000000000E+000	4.00568e+07	0.000424954	0.000000000000000E+000	0.000424954	0.0000000E+000	0.000000000000000E+000	1.48194e-06
2	0	0	0	0	0	0	132.108	-0.0999884	-0.0998875	-0.0130496	-0.0015955	-0.0015955	13	-0.000443194	0	0.000000000000000E+000	4.4286e-08	0.000000000000000E+000	4.17761e+07	0.000443194	0.000000000000000E+000	0.000443194	0.0000000E+000	0.000000000000000E+000	1.30349e-06
2	0	0	0	0	0	0	136.508	-0.0999884	-0.100078	-0.00985148	-0.00164538	-0.00164538	13	-0.00045705	0	0.000000000000000E+000	4.56707e-08	0.000000000000000E+000	1.077e+07	0.00045705	0.000000000000000E+000	0.00045705	0.0000000E+000	0.000000000000000E+000	9.85921e-07
2	0	0	0	0	0	0	140.908	-0.0999884	-0.0999639	-0.00821502	-0.00168468	-0.00168468	13	-0.000467966	0	0.000000000000000E+000	4.67613e-08	0.000000000000000E+000	4.41111e+07	0.000467966	0.000000000000000E+000	0.000467966	0.0000000E+000	0.000000000000000E+000	8.21206e-07
2	0	0	0	0	0	0	145.308	-0.0999884	-0.0999257	-0.00718628	-0.00171835	-0.00171835	13	-0.000477321	0	0.000000000000000E+000	4.76961e-08	0.000000000000000E+000	0.000000000000000E+000	0.000477321	0.000000000000000E+000	0.000477321	0.0000000E+000	0.000000000000000E+000	7.18094e-07
2	0	0	0	0	0	0	149.708	-0.0999884	-0.100078	-0.00648009	-0.0017483	-0.0017483	13	-0.000485638	0	0.000000000000000E+000	4.85273e-08	0.000000000000000E+000	1.14437e+07	0.000485638	0.000000000000000E+000	0.000485638	0.0000000E+000	0.000000000000000E+000	6.48518e-07
2	0	0	0	0	0	0	154.108	-0.0999884	-0.0999639	-0.00596108	-0.00177559	-0.00177559	13	-0.00049322	0	0.000000000000000E+000	4.9285e-08	0.000000000000000E+000	4.64916e+07	0.00049322	0.000000000000000E+000	0.00049322	0.0000000E+000	0.000000000000000E+000	5.95893e-07
2	0	0	0	0	0	0	158.508	-0.0999884	-0.0999639	-0.00554957	-0.00180086	-0.00180086	13	-0.00050024	0	0.000000000000000E+000	4.99866e-08	0.000000000000000E+000	4.71533e+07	0.00050024	0.000000000000000E+000	0.00050024	0.0000000E+000	0.000000000000000E+000	5.54756e-07
2	0	0	0	0	0	0	162.908	-0.0999884	-0.0999257	-0.00521285	-0.0018245	-0.0018245	13	-0.000506807	0	0.000000000000000E+000	5.06427e-08	0.000000000000000E+000	0.000000000000000E+000	0.000506807	0.000000000000000E+000	0.000506807	0.0000000E+000	0.000000000000000E+000	5.20898e-07
2	0	0	0	0	0	0	165.335	-0.0999884	-0.0998684	-0.00504596	-0.00183694	-0.00183694	13	-0.000510262	0	0.000000000000000E+000	5.0988e-08	0.000000000000000E+000	3.20653e+07	0.000510262	0.000000000000000E+000	0.000510262	0.0000000E+000	0.000000000000000E+000	5.03932e-07