File: Lares Oxides/2024-6-20 Ni65Co32Fe3Ox on FTO_1_00mg_CP_C02.mpt
EC-Lab ASCII FILE
Nb header lines : 54

Chronopotentiometry

Run on channel : 2 (SN 39659)
User :
CE vs. WE compliance from -18 V to 2 V
Electrode connection : standard
Potential control : Ewe
Ewe ctrl range : min = 0.00 V, max = 5.00 V
Safety Limits :
	Do not start on E overload
Acquisition started on : 06/20/2024 08:51:44.422
Technique started on : 06/20/2024 08:51:45.422
Loaded Setting File :  NONE
Saved on :
	File : 2024-6-20 Ni65Co32Fe3Ox on FTO_1_00mg_CP_C02.mpr
	Directory : C:\Users\sfolkman\OneDrive - New Mexico State University\Folkman Group Folder\Scott\
	Host : 172.24.124.15
Device : VSP (SN 1910)
Address : USB
EC-Lab for windows v11.46 (software)
Internet server v11.40 (firmware)
Command interpretor v11.40 (firmware)
Electrode material :
Initial state :
Electrolyte :
Comments :
Electrode surface area : 0.001 cm²
Characteristic mass : 0.001 g
Equivalent Weight : 0.000 g/eq.
Density : 0.000 g/cm3
Volume (V) : 0.001 cm³
Record Ece
Cycle Definition : Charge/Discharge alternance
Is                  10.000
unit Is             mA
vs.                 <None>
ts (h:m:s)          48:00:0.0000
EM (V)              5.000
dQM                 480.000
unit dQM            mA.h
record              <Ewe>
dEs (mV)            0.00
dts (s)             1.0000
E range min (V)     0.000
E range max (V)     5.000
I Range             10 mA
Bandwidth           5
goto Ns'            0
nc cycles           0

mode	ox/red	error	control changes	Ns changes	counter inc.	Ns	time/s	control/mA	<Ewe>/V	I/mA	dQ/C	(Q-Qo)/C	half cycle	Q charge/discharge/mA.h	I Range	<Ece>/V	Energy charge/W.h	Energy discharge/W.h	Capacitance charge/µF	Capacitance discharge/µF	Q discharge/mA.h	Q charge/mA.h	Capacity/mA.h	Efficiency/%	cycle number	P/W	Ewe-Ece/V
1	1	0	1	0	0	0	1	10	0.957318	10.0041	0.00950167	0.00950167	0	0.00263935	11	-0.994663	2.5267e-06	0.000000000000000E+000	0.000000000000000E+000	0.000000000000000E+000	0.000000000000000E+000	0.00263935	0.00263935	0.0000000E+000	0.000000000000000E+000	0.00957716	1.95198
1	1	0	1	0	0	0	42	10	0.957857	10.0041	0.419656	0.419656	0	0.116571	11	-1.07822	0.000111754	0.000000000000000E+000	7.79783e+08	0.000000000000000E+000	0.000000000000000E+000	0.116571	0.116571	0.0000000E+000	0.000000000000000E+000	0.00958248	2.03608
1	1	0	1	0	0	0	83	10	0.962168	10.0034	0.829808	0.829808	0	0.230502	11	-1.07629	0.000221079	0.000000000000000E+000	1.71104e+08	0.000000000000000E+000	0.000000000000000E+000	0.230502	0.230502	0.0000000E+000	0.000000000000000E+000	0.00962494	2.03846
1	1	0	1	0	0	0	124	10	0.976362	10.0045	1.23996	1.23996	0	0.344433	11	-1.07506	0.000331445	0.000000000000000E+000	6.51121e+07	0.000000000000000E+000	0.000000000000000E+000	0.344433	0.344433	0.0000000E+000	0.000000000000000E+000	0.00976798	2.05142
1	1	0	1	0	0	0	165	10	1.00295	10.003	1.65011	1.65011	0	0.458364	11	-1.07332	0.000444103	0.000000000000000E+000	3.61619e+07	0.000000000000000E+000	0.000000000000000E+000	0.458364	0.458364	0.0000000E+000	0.000000000000000E+000	0.0100325	2.07627
1	1	0	1	0	0	0	206	10	1.01976	10.0033	2.06026	2.06026	0	0.572294	11	-1.07442	0.000560063	0.000000000000000E+000	3.29925e+07	0.000000000000000E+000	0.000000000000000E+000	0.572294	0.572294	0.0000000E+000	0.000000000000000E+000	0.010201	2.09418
1	1	0	1	0	0	0	247	10	1.02937	10.0038	2.47041	2.47041	0	0.686224	11	-1.07641	0.00067677	0.000000000000000E+000	3.42848e+07	0.000000000000000E+000	0.000000000000000E+000	0.686224	0.686224	0.0000000E+000	0.000000000000000E+000	0.0102976	2.10579
1	1	0	1	0	0	0	288	10	1.02759	10.0033	2.88055	2.88055	0	0.800154	11	-1.07746	0.000793735	0.000000000000000E+000	4.09938e+07	0.000000000000000E+000	0.000000000000000E+000	0.800154	0.800154	0.0000000E+000	0.000000000000000E+000	0.0102792	2.10504
1	1	0	1	0	0	0	329	10	1.02849	10.0035	3.2907	3.2907	0	0.914084	11	-1.07911	0.00091093	0.000000000000000E+000	4.62388e+07	0.000000000000000E+000	0.000000000000000E+000	0.914084	0.914084	0.0000000E+000	0.000000000000000E+000	0.0102885	2.1076
1	1	0	1	0	0	0	370	10	1.03167	10.0029	3.70085	3.70085	0	1.02801	11	-1.08038	0.00102835	0.000000000000000E+000	4.97741e+07	0.000000000000000E+000	0.000000000000000E+000	1.02801	1.02801	0.0000000E+000	0.000000000000000E+000	0.0103197	2.11206
1	1	0	1	0	0	0	411	10	1.03433	10.0036	4.111	4.111	0	1.14194	11	-1.08228	0.001146	0.000000000000000E+000	5.33845e+07	0.000000000000000E+000	0.000000000000000E+000	1.14194	1.14194	0.0000000E+000	0.000000000000000E+000	0.010347	2.1166
1	1	0	1	0	0	0	452	10	1.03595	10.0038	4.52115	4.52115	0	1.25587	11	-1.08352	0.00126389	0.000000000000000E+000	5.75003e+07	0.000000000000000E+000	0.000000000000000E+000	1.25587	1.25587	0.0000000E+000	0.000000000000000E+000	0.0103634	2.11947
1	1	0	1	0	0	0	493	10	1.03712	10.0035	4.9313	4.9313	0	1.3698	11	-1.0857	0.001382	0.000000000000000E+000	6.17969e+07	0.000000000000000E+000	0.000000000000000E+000	1.3698	1.3698	0.0000000E+000	0.000000000000000E+000	0.0103748	2.12281
1	1	0	1	0	0	0	534	10	1.03862	10.0029	5.34144	5.34144	0	1.48373	11	-1.08708	0.00150029	0.000000000000000E+000	6.56957e+07	0.000000000000000E+000	0.000000000000000E+000	1.48373	1.48373	0.0000000E+000	0.000000000000000E+000	0.0103892	2.12571
1	1	0	1	0	0	0	575	10	1.0416	10.0034	5.75159	5.75159	0	1.59766	11	-1.08927	0.00161878	0.000000000000000E+000	6.82394e+07	0.000000000000000E+000	0.000000000000000E+000	1.59766	1.59766	0.0000000E+000	0.000000000000000E+000	0.0104196	2.13087
1	1	0	1	0	0	0	616	10	1.04303	10.0036	6.16174	6.16174	0	1.71159	11	-1.09017	0.00173748	0.000000000000000E+000	7.18862e+07	0.000000000000000E+000	0.000000000000000E+000	1.71159	1.71159	0.0000000E+000	0.000000000000000E+000	0.0104341	2.1332
1	1	0	1	0	0	0	657	10	1.04429	10.0039	6.57189	6.57189	0	1.82552	11	-1.09018	0.00185636	0.000000000000000E+000	7.55602e+07	0.000000000000000E+000	0.000000000000000E+000	1.82552	1.82552	0.0000000E+000	0.000000000000000E+000	0.010447	2.13447
1	1	0	1	0	0	0	698	10	1.04516	10.0039	6.98204	6.98204	0	1.93945	11	-1.09179	0.00197541	0.000000000000000E+000	7.94826e+07	0.000000000000000E+000	0.000000000000000E+000	1.93945	1.93945	0.0000000E+000	0.000000000000000E+000	0.0104557	2.13695
1	1	0	1	0	0	0	739	10	1.0475	10.004	7.39218	7.39218	0	2.05338	11	-1.09341	0.00209465	0.000000000000000E+000	8.19658e+07	0.000000000000000E+000	0.000000000000000E+000	2.05338	2.05338	0.0000000E+000	0.000000000000000E+000	0.0104793	2.14091
1	1	0	1	0	0	0	780	10	1.04971	10.0034	7.80233	7.80233	0	2.16731	11	-1.09521	0.00221418	0.000000000000000E+000	8.44528e+07	0.000000000000000E+000	0.000000000000000E+000	2.16731	2.16731	0.0000000E+000	0.000000000000000E+000	0.0105006	2.14491
1	1	0	1	0	0	0	821	10	1.05202	10.003	8.21248	8.21248	0	2.28124	11	-1.09684	0.00233395	0.000000000000000E+000	8.67241e+07	0.000000000000000E+000	0.000000000000000E+000	2.28124	2.28124	0.0000000E+000	0.000000000000000E+000	0.0105233	2.14885
1	1	0	1	0	0	0	862	10	1.0546	10.0036	8.62262	8.62262	0	2.39517	11	-1.09833	0.00245397	0.000000000000000E+000	8.86363e+07	0.000000000000000E+000	0.000000000000000E+000	2.39517	2.39517	0.0000000E+000	0.000000000000000E+000	0.0105498	2.15293
1	1	0	1	0	0	0	903	10	1.05643	10.0034	9.03277	9.03277	0	2.5091	11	-1.09982	0.00257423	0.000000000000000E+000	9.11333e+07	0.000000000000000E+000	0.000000000000000E+000	2.5091	2.5091	0.0000000E+000	0.000000000000000E+000	0.010568	2.15625
1	1	0	1	0	0	0	944	10	1.0589	10.0034	9.44292	9.44292	0	2.62303	11	-1.10111	0.00269474	0.000000000000000E+000	9.29551e+07	0.000000000000000E+000	0.000000000000000E+000	2.62303	2.62303	0.0000000E+000	0.000000000000000E+000	0.0105927	2.16002
1	1	0	1	0	0	0	985	10	1.06138	10.0038	9.85307	9.85307	0	2.73696	11	-1.10277	0.00281551	0.000000000000000E+000	9.46809e+07	0.000000000000000E+000	0.000000000000000E+000	2.73696	2.73696	0.0000000E+000	0.000000000000000E+000	0.0106178	2.16416
1	1	0	1	0	0	0	1026	10	1.06318	10.0043	10.2632	10.2632	0	2.85089	11	-1.10397	0.00293653	0.000000000000000E+000	9.69532e+07	0.000000000000000E+000	0.000000000000000E+000	2.85089	2.85089	0.0000000E+000	0.000000000000000E+000	0.0106363	2.16715
1	1	0	1	0	0	0	1067	10	1.06539	10.0044	10.6734	10.6734	0	2.96482	11	-1.10514	0.00305777	0.000000000000000E+000	9.87585e+07	0.000000000000000E+000	0.000000000000000E+000	2.96482	2.96482	0.0000000E+000	0.000000000000000E+000	0.0106586	2.17053
1	1	0	1	0	0	0	1108	10	1.06761	10.0031	11.0835	11.0835	0	3.07875	11	-1.10603	0.00317926	0.000000000000000E+000	1.0049e+08	0.000000000000000E+000	0.000000000000000E+000	3.07875	3.07875	0.0000000E+000	0.000000000000000E+000	0.0106795	2.17365
1	1	0	1	0	0	0	1149	10	1.06928	10.0038	11.4937	11.4937	0	3.19268	11	-1.10387	0.00330099	0.000000000000000E+000	1.02659e+08	0.000000000000000E+000	0.000000000000000E+000	3.19268	3.19268	0.0000000E+000	0.000000000000000E+000	0.0106969	2.17315
1	1	0	1	0	0	0	1190	10	1.07139	10.003	11.9038	11.9038	0	3.30661	11	-1.10519	0.00342295	0.000000000000000E+000	1.04355e+08	0.000000000000000E+000	0.000000000000000E+000	3.30661	3.30661	0.0000000E+000	0.000000000000000E+000	0.0107171	2.17658
1	1	0	1	0	0	0	1231	10	1.07365	10.0036	12.3139	12.3139	0	3.42054	11	-1.10644	0.00354515	0.000000000000000E+000	1.05854e+08	0.000000000000000E+000	0.000000000000000E+000	3.42054	3.42054	0.0000000E+000	0.000000000000000E+000	0.0107403	2.18009
1	1	0	1	0	0	0	1272	10	1.07543	10.0038	12.7241	12.7241	0	3.53447	11	-1.10765	0.00366756	0.000000000000000E+000	1.07725e+08	0.000000000000000E+000	0.000000000000000E+000	3.53447	3.53447	0.0000000E+000	0.000000000000000E+000	0.0107584	2.18308
1	1	0	1	0	0	0	1313	10	1.07702	10.0037	13.1342	13.1342	0	3.6484	11	-1.10894	0.00379018	0.000000000000000E+000	1.09728e+08	0.000000000000000E+000	0.000000000000000E+000	3.6484	3.6484	0.0000000E+000	0.000000000000000E+000	0.0107742	2.18596
1	1	0	1	0	0	0	1354	10	1.07857	10.0037	13.5444	13.5444	0	3.76233	11	-1.11016	0.00391297	0.000000000000000E+000	1.11705e+08	0.000000000000000E+000	0.000000000000000E+000	3.76233	3.76233	0.0000000E+000	0.000000000000000E+000	0.0107897	2.18873
1	1	0	1	0	0	0	1395	10	1.08047	10.0031	13.9545	13.9545	0	3.87626	11	-1.11121	0.00403597	0.000000000000000E+000	1.13308e+08	0.000000000000000E+000	0.000000000000000E+000	3.87626	3.87626	0.0000000E+000	0.000000000000000E+000	0.0108081	2.19168
1	1	0	1	0	0	0	1436	10	1.0822	10.0034	14.3647	14.3647	0	3.99019	11	-1.1123	0.00415916	0.000000000000000E+000	1.15029e+08	0.000000000000000E+000	0.000000000000000E+000	3.99019	3.99019	0.0000000E+000	0.000000000000000E+000	0.0108256	2.19449
1	1	0	1	0	0	0	1477	10	1.08429	10.0033	14.7748	14.7748	0	4.10412	11	-1.11356	0.00428256	0.000000000000000E+000	1.16364e+08	0.000000000000000E+000	0.000000000000000E+000	4.10412	4.10412	0.0000000E+000	0.000000000000000E+000	0.0108464	2.19785
1	1	0	1	0	0	0	1518	10	1.08719	10.0031	15.185	15.185	0	4.21805	11	-1.11424	0.00440623	0.000000000000000E+000	1.16925e+08	0.000000000000000E+000	0.000000000000000E+000	4.21805	4.21805	0.0000000E+000	0.000000000000000E+000	0.0108752	2.20143
1	1	0	1	0	0	0	1559	10	1.0887	10.0033	15.5951	15.5951	0	4.33198	11	-1.11392	0.00453017	0.000000000000000E+000	1.18704e+08	0.000000000000000E+000	0.000000000000000E+000	4.33198	4.33198	0.0000000E+000	0.000000000000000E+000	0.0108906	2.20261
1	1	0	1	0	0	0	1600	10	1.09066	10.0039	16.0053	16.0053	0	4.44591	11	-1.11506	0.00465435	0.000000000000000E+000	1.20034e+08	0.000000000000000E+000	0.000000000000000E+000	4.44591	4.44591	0.0000000E+000	0.000000000000000E+000	0.0109108	2.20571
1	1	0	1	0	0	0	1641	10	1.09307	10.0039	16.4154	16.4154	0	4.55984	11	-1.11627	0.00477874	0.000000000000000E+000	1.20923e+08	0.000000000000000E+000	0.000000000000000E+000	4.55984	4.55984	0.0000000E+000	0.000000000000000E+000	0.0109349	2.20934
1	1	0	1	0	0	0	1682	10	1.0951	10.0035	16.8256	16.8256	0	4.67377	11	-1.11755	0.00490342	0.000000000000000E+000	1.22119e+08	0.000000000000000E+000	0.000000000000000E+000	4.67377	4.67377	0.0000000E+000	0.000000000000000E+000	0.0109548	2.21265
1	1	0	1	0	0	0	1693.4	10	5.26533	10.0033	16.9396	16.9396	0	4.70546	11	3.05387	0.00493804	0.000000000000000E+000	3.93213e+06	0.000000000000000E+000	0.000000000000000E+000	4.70546	4.70546	0.0000000E+000	0.000000000000000E+000	0.0526704	2.21145