File: Lares Oxides/2024-6-21 NiOx on FTO_2_50mg_01_PEIS_C05.mpt
EC-Lab ASCII FILE
Nb header lines : 65

Potentio Electrochemical Impedance Spectroscopy

Run on channel : 5 (SN 39658)
User :
CE vs. WE compliance from -10 V to 10 V
Electrode connection : standard
Potential control : Ewe
Ewe ctrl range : min = -2.50 V, max = 2.50 V
Safety Limits :
	Do not start on E overload
Acquisition started on : 06/21/2024 11:53:45.401
Technique started on : 06/21/2024 11:53:47.106
Loaded Setting File :  NONE
Saved on :
	File : 2024-6-21 NiOx on FTO_2_50mg_01_PEIS_C05.mpr
	Directory : C:\Users\sfolkman\OneDrive - New Mexico State University\Folkman Group Folder\Scott\
	Host : 172.24.124.15
Device : VSP (SN 1910)
Address : USB
EC-Lab for windows v11.46 (software)
Internet server v11.40 (firmware)
Command interpretor v11.40 (firmware)
Electrode material :
Initial state :
Electrolyte :
Comments :
Current amplifier : VSPB-4A
Electrode surface area : 0.001 cm²
Characteristic mass : 0.001 g
Equivalent Weight : 0.000 g/eq.
Density : 0.000 g/cm3
Volume (V) : 0.001 cm³
Cycle Definition : Charge/Discharge alternance
Mode                Single sine
E (V)               0.0000
vs.                 Eoc
tE (h:m:s)          0:00:0.0000
record              0
dI                  0.000
unit dI             mA
dt (s)              0.000
fi                  200.000
unit fi             kHz
ff                  100.000
unit ff             mHz
Nd                  6
Points              per decade
spacing             Logarithmic
Va (mV)             10.0
pw                  0.10
Na                  2
corr                0
E range min (V)     -2.500
E range max (V)     2.500
I Range             Auto
Bandwidth           4
nc cycles           0
goto Ns'            0
nr cycles           0
inc. cycle          0

freq/Hz	Re(Z)/Ohm	-Im(Z)/Ohm	|Z|/Ohm	Phase(Z)/deg	time/s	<Ewe>/V	<I>/mA	Cs/µF	Cp/µF	cycle number	I Range	|Ewe|/V	|I|/A	Ns	(Q-Qo)/mA.h	Re(Y)/Ohm-1	Im(Y)/Ohm-1	|Y|/Ohm-1	Phase(Y)/deg	Re(C)/nF	Im(C)/nF	|C|/nF	Phase(C)/deg	Re(M)	Im(M)	|M|	Phase(M)/deg	Re(Permittivity)	Im(Permittivity)	|Permittivity|	Phase(Permittivity)/deg	Re(Resistivity)/Ohm.cm	Im(Resistivity)/Ohm.cm	|Resistivity|/Ohm.cm	Phase(Resistivity)/deg	Re(Conductivity)/mS/cm	Im(Conductivity)/mS/cm	|Conductivity|/mS/cm	Phase(Conductivity)/deg	Tan(Delta)	Loss Angle(Delta)/deg	dq/mA.h
199998	4.80852	12.2629	13.1719	-68.5888	1.70547	0.247438	-0.0136872	0.0648937	0.0562455	1	10	0.0102591	0.000778865	0	-4.75815e-06	0.0277149	0.0706795	0.0759191	68.5888	56.2455	22.055	60.4151	-21.4112	0.0000000E+000	0.0000000E+000	0.0000000E+000	21.4112	0.0000000E+000	0.0000000E+000	0.0000000E+000	-21.4112	0.0000000E+000	0.0000000E+000	0.0000000E+000	-68.5888	0.0000000E+000	0.0000000E+000	0.0000000E+000	68.5888	0.392121	68.5888	-4.75815e-06
91291.2	8.17798	8.06814	11.488	-44.6126	2.89549	0.247497	-0.0130823	0.216082	0.10658	1	10	0.0101242	0.000881283	0	-2.43244e-05	0.0619665	0.0611342	0.0870473	44.6126	106.58	108.031	151.756	-45.3874	0.0000000E+000	0.0000000E+000	0.0000000E+000	45.3874	0.0000000E+000	0.0000000E+000	0.0000000E+000	-45.3874	0.0000000E+000	0.0000000E+000	0.0000000E+000	-44.6126	0.0000000E+000	0.0000000E+000	0.0000000E+000	44.6126	1.01361	44.6126	-1.63287e-05
41669.8	11.1053	5.32045	12.314	-25.5987	3.78748	0.247527	-0.0134397	0.717879	0.134014	1	10	0.010667	0.000866253	0	-3.05323e-05	0.0732373	0.0350874	0.0812085	25.5987	134.014	279.725	310.171	-64.4013	0.0000000E+000	0.0000000E+000	0.0000000E+000	64.4013	0.0000000E+000	0.0000000E+000	0.0000000E+000	-64.4013	0.0000000E+000	0.0000000E+000	0.0000000E+000	-25.5987	0.0000000E+000	0.0000000E+000	0.0000000E+000	25.5987	2.08728	25.5987	-9.28304e-06
19020.9	12.1356	4.21286	12.846	-19.1444	4.67948	0.247528	-0.0129278	1.98615	0.213613	1	10	0.0104816	0.00081594	0	-3.72474e-05	0.0735399	0.0255293	0.0778451	19.1444	213.613	615.335	651.358	-70.8556	0.0000000E+000	0.0000000E+000	0.0000000E+000	70.8556	0.0000000E+000	0.0000000E+000	0.0000000E+000	-70.8556	0.0000000E+000	0.0000000E+000	0.0000000E+000	-19.1444	0.0000000E+000	0.0000000E+000	0.0000000E+000	19.1444	2.8806	19.1444	1.9061e-08
8683.37	13.2892	4.5865	14.0584	-19.041	5.59998	0.247572	-0.0119693	3.99623	0.425342	1	10	0.0101343	0.000720872	0	-3.65274e-05	0.0672397	0.0232064	0.0711316	19.041	425.342	1232.42	1303.75	-70.959	0.0000000E+000	0.0000000E+000	0.0000000E+000	70.959	0.0000000E+000	0.0000000E+000	0.0000000E+000	-70.959	0.0000000E+000	0.0000000E+000	0.0000000E+000	-19.041	0.0000000E+000	0.0000000E+000	0.0000000E+000	19.041	2.89747	19.041	4.44557e-06
3961.2	14.0703	6.40462	15.4594	-24.4744	6.71293	0.247519	-0.0135178	6.27336	1.07672	1	10	0.0105247	0.000680799	0	-4.09949e-05	0.0588734	0.0267984	0.0646856	24.4744	1076.72	2365.44	2598.97	-65.5256	0.0000000E+000	0.0000000E+000	0.0000000E+000	65.5256	0.0000000E+000	0.0000000E+000	0.0000000E+000	-65.5256	0.0000000E+000	0.0000000E+000	0.0000000E+000	-24.4744	0.0000000E+000	0.0000000E+000	0.0000000E+000	24.4744	2.1969	24.4744	-4.85545e-07
1808.26	14.7413	11.8423	18.9088	-38.7763	7.66093	0.247522	-0.0137263	7.43231	2.91516	1	10	0.0106954	0.00056563	0	-4.71024e-05	0.0412293	0.0331211	0.0528853	38.7763	2915.16	3628.81	4654.72	-51.2237	0.0000000E+000	0.0000000E+000	0.0000000E+000	51.2237	0.0000000E+000	0.0000000E+000	0.0000000E+000	-51.2237	0.0000000E+000	0.0000000E+000	0.0000000E+000	-38.7763	0.0000000E+000	0.0000000E+000	0.0000000E+000	38.7763	1.2448	38.7763	-3.71555e-06
825.264	15.7286	24.0848	28.7658	-56.8534	8.60768	0.247542	-0.0133838	8.00725	5.61331	1	10	0.0105136	0.000365489	0	-5.11982e-05	0.0190081	0.0291066	0.0347636	56.8534	5613.31	3665.78	6704.27	-33.1466	0.0000000E+000	0.0000000E+000	0.0000000E+000	33.1466	0.0000000E+000	0.0000000E+000	0.0000000E+000	-33.1466	0.0000000E+000	0.0000000E+000	0.0000000E+000	-56.8534	0.0000000E+000	0.0000000E+000	0.0000000E+000	56.8534	0.653051	56.8534	2.82443e-08
377.051	18.7844	50.2882	53.682	-69.5175	10.0527	0.247565	-0.00169492	8.39371	7.36594	1	11	0.00983821	0.000183268	0	-5.08041e-05	0.0065184	0.0174505	0.0186282	69.5175	7365.94	2751.44	7863.05	-20.4825	0.0000000E+000	0.0000000E+000	0.0000000E+000	20.4825	0.0000000E+000	0.0000000E+000	0.0000000E+000	-20.4825	0.0000000E+000	0.0000000E+000	0.0000000E+000	-69.5175	0.0000000E+000	0.0000000E+000	0.0000000E+000	69.5175	0.373536	69.5175	7.32049e-07
172.037	25.7489	104.986	108.098	-76.2196	10.9954	0.247523	-0.00183363	8.81185	8.31187	1	11	0.00963198	8.91046e-05	0	-5.16763e-05	0.00220357	0.00898463	0.00925091	76.2196	8311.87	2038.57	8558.21	-13.7804	0.0000000E+000	0.0000000E+000	0.0000000E+000	13.7804	0.0000000E+000	0.0000000E+000	0.0000000E+000	-13.7804	0.0000000E+000	0.0000000E+000	0.0000000E+000	-76.2196	0.0000000E+000	0.0000000E+000	0.0000000E+000	76.2196	0.24526	76.2196	-7.30726e-07
78.5176	44.1983	213.011	217.548	-78.2779	12.2135	0.247541	-7.87602e-05	9.51591	9.12313	1	12	0.00969733	4.45755e-05	0	-5.15857e-05	0.000933885	0.00450081	0.00459668	78.2779	9123.13	1892.98	9317.45	-11.7221	0.0000000E+000	0.0000000E+000	0.0000000E+000	11.7221	0.0000000E+000	0.0000000E+000	0.0000000E+000	-11.7221	0.0000000E+000	0.0000000E+000	0.0000000E+000	-78.2779	0.0000000E+000	0.0000000E+000	0.0000000E+000	78.2779	0.207493	78.2779	4.01323e-07
35.8372	88.9569	430.773	439.862	-78.3321	13.1661	0.247519	-9.13998e-05	10.3095	9.88784	1	12	0.00954278	2.16949e-05	0	-5.13295e-05	0.000459776	0.00222646	0.00227344	78.3321	9887.84	2041.89	10096.5	-11.6679	0.0000000E+000	0.0000000E+000	0.0000000E+000	11.6679	0.0000000E+000	0.0000000E+000	0.0000000E+000	-11.6679	0.0000000E+000	0.0000000E+000	0.0000000E+000	-78.3321	0.0000000E+000	0.0000000E+000	0.0000000E+000	78.3321	0.206505	78.3321	2.34023e-08
16.367	173.523	866.024	883.237	-78.6698	14.092	0.247519	-0.000161874	11.2285	10.7951	1	12	0.00951052	1.07678e-05	0	-5.143e-05	0.000222435	0.00111013	0.0011322	78.6698	10795.1	2162.99	11009.7	-11.3302	0.0000000E+000	0.0000000E+000	0.0000000E+000	11.3302	0.0000000E+000	0.0000000E+000	0.0000000E+000	-11.3302	0.0000000E+000	0.0000000E+000	0.0000000E+000	-78.6698	0.0000000E+000	0.0000000E+000	0.0000000E+000	78.6698	0.200368	78.6698	-9.51762e-08
7.46893	338.44	1741.44	1774.02	-79.0019	15.1116	0.247559	3.16832e-05	12.2364	11.7911	1	13	0.00954111	5.37825e-06	0	-5.14477e-05	0.000107539	0.000553339	0.000563692	79.0019	11791.1	2291.54	12011.7	-10.9981	0.0000000E+000	0.0000000E+000	0.0000000E+000	10.9981	0.0000000E+000	0.0000000E+000	0.0000000E+000	-10.9981	0.0000000E+000	0.0000000E+000	0.0000000E+000	-79.0019	0.0000000E+000	0.0000000E+000	0.0000000E+000	79.0019	0.194346	79.0019	-3.84601e-08
3.4086	626.375	3355.81	3413.77	-79.4272	16.2542	0.247555	-5.37808e-05	13.9138	13.4454	1	13	0.00953768	2.79388e-06	0	-5.14627e-05	5.37484e-05	0.000287958	0.000292931	79.4272	13445.4	2509.63	13677.6	-10.5728	0.0000000E+000	0.0000000E+000	0.0000000E+000	10.5728	0.0000000E+000	0.0000000E+000	0.0000000E+000	-10.5728	0.0000000E+000	0.0000000E+000	0.0000000E+000	-79.4272	0.0000000E+000	0.0000000E+000	0.0000000E+000	79.4272	0.186654	79.4272	-5.77941e-08
1.55627	1430.85	6753.4	6903.31	-78.0375	26.1876	0.247563	-7.35429e-05	15.143	14.4924	1	13	0.0104153	1.50875e-06	0	-5.14337e-05	3.00248e-05	0.000141712	0.000144858	78.0375	14492.4	3070.54	14814.1	-11.9625	0.0000000E+000	0.0000000E+000	0.0000000E+000	11.9625	0.0000000E+000	0.0000000E+000	0.0000000E+000	-11.9625	0.0000000E+000	0.0000000E+000	0.0000000E+000	-78.0375	0.0000000E+000	0.0000000E+000	0.0000000E+000	78.0375	0.211872	78.0375	1.12252e-07
0.710357	2792.14	13607.8	13891.3	-78.4046	57.2511	0.247556	-2.44017e-05	16.4648	15.7996	1	13	0.010405	7.49032e-07	0	-5.20958e-05	1.44695e-05	7.05185e-05	7.19877e-05	78.4046	15799.6	3241.89	16128.8	-11.5954	0.0000000E+000	0.0000000E+000	0.0000000E+000	11.5954	0.0000000E+000	0.0000000E+000	0.0000000E+000	-11.5954	0.0000000E+000	0.0000000E+000	0.0000000E+000	-78.4046	0.0000000E+000	0.0000000E+000	0.0000000E+000	78.4046	0.205188	78.4046	-3.01487e-07
0.324439	4973.16	27143.9	27595.7	-79.6177	122.163	0.247554	7.03698e-05	18.0724	17.4854	1	13	0.0104038	3.77007e-07	0	-5.29483e-05	6.53055e-06	3.56442e-05	3.62375e-05	79.6177	17485.4	3203.59	17776.5	-10.3823	0.0000000E+000	0.0000000E+000	0.0000000E+000	10.3823	0.0000000E+000	0.0000000E+000	0.0000000E+000	-10.3823	0.0000000E+000	0.0000000E+000	0.0000000E+000	-79.6177	0.0000000E+000	0.0000000E+000	0.0000000E+000	79.6177	0.183215	79.6177	-6.34057e-07
0.147897	14448.4	59167.6	60906.2	-76.2772	261.823	0.247562	-8.13033e-05	18.1877	17.1642	1	13	0.0104094	1.70909e-07	0	-5.51797e-05	3.89491e-06	1.595e-05	1.64187e-05	76.2772	17164.2	4191.4	17668.5	-13.7228	0.0000000E+000	0.0000000E+000	0.0000000E+000	13.7228	0.0000000E+000	0.0000000E+000	0.0000000E+000	-13.7228	0.0000000E+000	0.0000000E+000	0.0000000E+000	-76.2772	0.0000000E+000	0.0000000E+000	0.0000000E+000	76.2772	0.244195	76.2772	-1.59687e-06
0.0999041	20142.1	80557.6	83037.5	-75.962	384.27	0.247554	-8.89528e-05	19.7756	18.6121	1	13	0.0104014	1.25261e-07	0	-5.76327e-05	2.92116e-06	1.16831e-05	1.20428e-05	75.962	18612.1	4653.64	19185	-14.038	0.0000000E+000	0.0000000E+000	0.0000000E+000	14.038	0.0000000E+000	0.0000000E+000	0.0000000E+000	-14.038	0.0000000E+000	0.0000000E+000	0.0000000E+000	-75.962	0.0000000E+000	0.0000000E+000	0.0000000E+000	75.962	0.250033	75.962	-2.45301e-06