File: Lares Oxides/2024-6-19 FeOx on FTO_1_03mg_03_CP_C05.mpt
EC-Lab ASCII FILE
Nb header lines : 57

Chronopotentiometry

Run on channel : 5 (SN 39658)
User :
CE vs. WE compliance from -10 V to 10 V
Electrode connection : standard
Potential control : Ewe
Ewe ctrl range : min = -2.50 V, max = 2.50 V
Safety Limits :
	Do not start on E overload
Acquisition started on : 06/19/2024 15:35:49.269
Technique started on : 06/19/2024 15:47:11.294
Loaded Setting File :  NONE
Saved on :
	File : 2024-6-19 FeOx on FTO_1_03mg_03_CP_C05.mpr
	Directory : C:\Users\sfolkman\OneDrive - New Mexico State University\Folkman Group Folder\Scott\
	Host : 172.24.124.15
Device : VSP (SN 1910)
Address : USB
EC-Lab for windows v11.46 (software)
Internet server v11.40 (firmware)
Command interpretor v11.40 (firmware)
Electrode material :
Initial state :
Electrolyte :
Comments :
Current amplifier : VSPB-4A
Electrode surface area : 0.001 cm²
Characteristic mass : 0.001 g
Equivalent Weight : 0.000 g/eq.
Density : 0.000 g/cm3
Volume (V) : 0.001 cm³
Cycle Definition : Charge/Discharge alternance
Is                  10.000
unit Is             mA
vs.                 <None>
ts (h:m:s)          48:00:0.0000
EM (V)              2.000
dQM                 480.000
unit dQM            mA.h
record              <Ewe>
dEs (mV)            0.00
dts (s)             2.0000
E range min (V)     -2.500
E range max (V)     2.500
I Range             10 mA
Bandwidth           4
goto Ns'            0
nc cycles           0

Modify on : 06/19/2024 15:40
EM (V)              5.000

mode	ox/red	error	control changes	Ns changes	counter inc.	Ns	time/s	control/mA	<Ewe>/V	I/mA	dQ/C	(Q-Qo)/C	half cycle	Q charge/discharge/mA.h	I Range	Energy charge/W.h	Energy discharge/W.h	Capacitance charge/µF	Capacitance discharge/µF	Q discharge/mA.h	Q charge/mA.h	Capacity/mA.h	Efficiency/%	cycle number	P/W
1	1	0	0	0	0	0	682.025	10	1.22969	9.99644	0.0189725	0.0189725	0	0.00527013	11	6.48063e-06	0.000000000000000E+000	0.000000000000000E+000	0.000000000000000E+000	0.000000000000000E+000	0.00527013	0.00527013	0.0000000E+000	0.000000000000000E+000	0.0122925
1	1	0	0	0	0	0	706.025	10	1.24473	9.99593	0.258878	0.258878	0	0.0719105	11	8.99132e-05	0.000000000000000E+000	1.72161e+07	0.000000000000000E+000	0.000000000000000E+000	0.0719105	0.0719105	0.0000000E+000	0.000000000000000E+000	0.0124422
1	1	0	0	0	0	0	730.025	10	1.26272	9.99606	0.498782	0.498782	0	0.13855	11	0.000173586	0.000000000000000E+000	1.51028e+07	0.000000000000000E+000	0.000000000000000E+000	0.13855	0.13855	0.0000000E+000	0.000000000000000E+000	0.0126222
1	1	0	0	0	0	0	754.025	10	1.27287	9.99625	0.738686	0.738686	0	0.20519	11	0.00025807	0.000000000000000E+000	1.7107e+07	0.000000000000000E+000	0.000000000000000E+000	0.20519	0.20519	0.0000000E+000	0.000000000000000E+000	0.0127239
1	1	0	0	0	0	0	778.025	10	1.28305	9.99606	0.978589	0.978589	0	0.27183	11	0.000343247	0.000000000000000E+000	1.83407e+07	0.000000000000000E+000	0.000000000000000E+000	0.27183	0.27183	0.0000000E+000	0.000000000000000E+000	0.0128254
1	1	0	0	0	0	0	802.025	10	1.29085	9.99593	1.21849	1.21849	0	0.33847	11	0.000429007	0.000000000000000E+000	1.99225e+07	0.000000000000000E+000	0.000000000000000E+000	0.33847	0.33847	0.0000000E+000	0.000000000000000E+000	0.0129033
1	1	0	0	0	0	0	826.025	10	1.29895	9.9951	1.45839	1.45839	0	0.405109	11	0.000515332	0.000000000000000E+000	2.10562e+07	0.000000000000000E+000	0.000000000000000E+000	0.405109	0.405109	0.0000000E+000	0.000000000000000E+000	0.0129832
1	1	0	0	0	0	0	850.025	10	1.30734	9.99612	1.6983	1.6983	0	0.471749	11	0.000602207	0.000000000000000E+000	2.18724e+07	0.000000000000000E+000	0.000000000000000E+000	0.471749	0.471749	0.0000000E+000	0.000000000000000E+000	0.0130683
1	1	0	0	0	0	0	874.025	10	1.31491	9.99618	1.9382	1.9382	0	0.538389	11	0.000689594	0.000000000000000E+000	2.27447e+07	0.000000000000000E+000	0.000000000000000E+000	0.538389	0.538389	0.0000000E+000	0.000000000000000E+000	0.013144
1	1	0	0	0	0	0	898.025	10	1.32253	9.99599	2.1781	2.1781	0	0.605028	11	0.000777498	0.000000000000000E+000	2.3461e+07	0.000000000000000E+000	0.000000000000000E+000	0.605028	0.605028	0.0000000E+000	0.000000000000000E+000	0.01322
1	1	0	0	0	0	0	922.025	10	1.32956	9.99637	2.418	2.418	0	0.671668	11	0.000865866	0.000000000000000E+000	2.42106e+07	0.000000000000000E+000	0.000000000000000E+000	0.671668	0.671668	0.0000000E+000	0.000000000000000E+000	0.0132908
1	1	0	0	0	0	0	946.025	10	1.33617	9.99606	2.6579	2.6579	0	0.738307	11	0.000954688	0.000000000000000E+000	2.4961e+07	0.000000000000000E+000	0.000000000000000E+000	0.738307	0.738307	0.0000000E+000	0.000000000000000E+000	0.0133565
1	1	0	0	0	0	0	970.025	10	1.34237	9.99548	2.89781	2.89781	0	0.804946	11	0.00104396	0.000000000000000E+000	2.57173e+07	0.000000000000000E+000	0.000000000000000E+000	0.804946	0.804946	0.0000000E+000	0.000000000000000E+000	0.0134176
1	1	0	0	0	0	0	994.025	10	1.34876	9.9958	3.13771	3.13771	0	0.871586	11	0.00113364	0.000000000000000E+000	2.6352e+07	0.000000000000000E+000	0.000000000000000E+000	0.871586	0.871586	0.0000000E+000	0.000000000000000E+000	0.0134819
1	1	0	0	0	0	0	1018.02	10	1.3547	9.99586	3.37761	3.37761	0	0.938225	11	0.00122374	0.000000000000000E+000	2.70183e+07	0.000000000000000E+000	0.000000000000000E+000	0.938225	0.938225	0.0000000E+000	0.000000000000000E+000	0.0135414
1	1	0	0	0	0	0	1042.02	10	1.36045	9.99548	3.61751	3.61751	0	1.00486	11	0.00131423	0.000000000000000E+000	2.76663e+07	0.000000000000000E+000	0.000000000000000E+000	1.00486	1.00486	0.0000000E+000	0.000000000000000E+000	0.0135983
1	1	0	0	0	0	0	1066.02	10	1.36608	9.99618	3.85741	3.85741	0	1.0715	11	0.0014051	0.000000000000000E+000	2.82816e+07	0.000000000000000E+000	0.000000000000000E+000	1.0715	1.0715	0.0000000E+000	0.000000000000000E+000	0.0136556
1	1	0	0	0	0	0	1090.02	10	1.37169	9.99606	4.09731	4.09731	0	1.13814	11	0.00149636	0.000000000000000E+000	2.88538e+07	0.000000000000000E+000	0.000000000000000E+000	1.13814	1.13814	0.0000000E+000	0.000000000000000E+000	0.0137115
1	1	0	0	0	0	0	1114.02	10	1.37714	9.99586	4.33721	4.33721	0	1.20478	11	0.00158797	0.000000000000000E+000	2.94147e+07	0.000000000000000E+000	0.000000000000000E+000	1.20478	1.20478	0.0000000E+000	0.000000000000000E+000	0.0137657
1	1	0	0	0	0	0	1138.02	10	1.38222	9.99555	4.57711	4.57711	0	1.27142	11	0.00167995	0.000000000000000E+000	3.00074e+07	0.000000000000000E+000	0.000000000000000E+000	1.27142	1.27142	0.0000000E+000	0.000000000000000E+000	0.0138161
1	1	0	0	0	0	0	1162.02	10	1.38723	9.99593	4.81702	4.81702	0	1.33806	11	0.00177225	0.000000000000000E+000	3.05763e+07	0.000000000000000E+000	0.000000000000000E+000	1.33806	1.33806	0.0000000E+000	0.000000000000000E+000	0.0138667
1	1	0	0	0	0	0	1186.02	10	1.39251	9.99612	5.05692	5.05692	0	1.4047	11	0.00186487	0.000000000000000E+000	3.10575e+07	0.000000000000000E+000	0.000000000000000E+000	1.4047	1.4047	0.0000000E+000	0.000000000000000E+000	0.0139197
1	1	0	0	0	0	0	1210.02	10	1.39869	9.99606	5.29682	5.29682	0	1.47134	11	0.00195789	0.000000000000000E+000	3.13415e+07	0.000000000000000E+000	0.000000000000000E+000	1.47134	1.47134	0.0000000E+000	0.000000000000000E+000	0.0139814
1	1	0	0	0	0	0	1234.02	10	1.40415	9.99586	5.53672	5.53672	0	1.53798	11	0.00205129	0.000000000000000E+000	3.17365e+07	0.000000000000000E+000	0.000000000000000E+000	1.53798	1.53798	0.0000000E+000	0.000000000000000E+000	0.0140357
1	1	0	0	0	0	0	1258.02	10	1.40966	9.99625	5.77662	5.77662	0	1.60462	11	0.00214508	0.000000000000000E+000	3.20974e+07	0.000000000000000E+000	0.000000000000000E+000	1.60462	1.60462	0.0000000E+000	0.000000000000000E+000	0.0140913
1	1	0	0	0	0	0	1282.02	10	1.41523	9.99606	6.01652	6.01652	0	1.67126	11	0.00223923	0.000000000000000E+000	3.24265e+07	0.000000000000000E+000	0.000000000000000E+000	1.67126	1.67126	0.0000000E+000	0.000000000000000E+000	0.0141468
1	1	0	0	0	0	0	1306.02	10	1.42068	9.99618	6.25642	6.25642	0	1.73789	11	0.00233375	0.000000000000000E+000	3.27575e+07	0.000000000000000E+000	0.000000000000000E+000	1.73789	1.73789	0.0000000E+000	0.000000000000000E+000	0.0142014
1	1	0	0	0	0	0	1330.02	10	1.42642	9.99536	6.49632	6.49632	0	1.80453	11	0.00242863	0.000000000000000E+000	3.3021e+07	0.000000000000000E+000	0.000000000000000E+000	1.80453	1.80453	0.0000000E+000	0.000000000000000E+000	0.0142576
1	1	0	0	0	0	0	1354.02	10	1.43186	9.99625	6.73622	6.73622	0	1.87117	11	0.00252387	0.000000000000000E+000	3.3319e+07	0.000000000000000E+000	0.000000000000000E+000	1.87117	1.87117	0.0000000E+000	0.000000000000000E+000	0.0143133
1	1	0	0	0	0	0	1378.02	10	1.43736	9.99656	6.97613	6.97613	0	1.93781	11	0.00261948	0.000000000000000E+000	3.35924e+07	0.000000000000000E+000	0.000000000000000E+000	1.93781	1.93781	0.0000000E+000	0.000000000000000E+000	0.0143687
1	1	0	0	0	0	0	1402.02	10	1.44225	9.99644	7.21603	7.21603	0	2.00445	11	0.00271544	0.000000000000000E+000	3.39478e+07	0.000000000000000E+000	0.000000000000000E+000	2.00445	2.00445	0.0000000E+000	0.000000000000000E+000	0.0144174
1	1	0	0	0	0	0	1426.02	10	1.44746	9.99529	7.45593	7.45593	0	2.07109	11	0.00281174	0.000000000000000E+000	3.4237e+07	0.000000000000000E+000	0.000000000000000E+000	2.07109	2.07109	0.0000000E+000	0.000000000000000E+000	0.0144678
1	1	0	0	0	0	0	1450.02	10	1.45293	9.9958	7.69583	7.69583	0	2.13773	11	0.0029084	0.000000000000000E+000	3.44738e+07	0.000000000000000E+000	0.000000000000000E+000	2.13773	2.13773	0.0000000E+000	0.000000000000000E+000	0.0145232
1	1	0	0	0	0	0	1474.02	10	1.45769	9.99637	7.93573	7.93573	0	2.20437	11	0.00300538	0.000000000000000E+000	3.48055e+07	0.000000000000000E+000	0.000000000000000E+000	2.20437	2.20437	0.0000000E+000	0.000000000000000E+000	0.0145716
1	1	0	0	0	0	0	1498.02	10	1.46279	9.99599	8.17563	8.17563	0	2.27101	11	0.00310271	0.000000000000000E+000	3.50732e+07	0.000000000000000E+000	0.000000000000000E+000	2.27101	2.27101	0.0000000E+000	0.000000000000000E+000	0.0146221
1	1	0	0	0	0	0	1522.02	10	1.46775	9.99536	8.41553	8.41553	0	2.33765	11	0.00320038	0.000000000000000E+000	3.53512e+07	0.000000000000000E+000	0.000000000000000E+000	2.33765	2.33765	0.0000000E+000	0.000000000000000E+000	0.0146706
1	1	0	0	0	0	0	1546.02	10	1.47239	9.99567	8.65543	8.65543	0	2.40429	11	0.00329836	0.000000000000000E+000	3.56635e+07	0.000000000000000E+000	0.000000000000000E+000	2.40429	2.40429	0.0000000E+000	0.000000000000000E+000	0.0147175
1	1	0	0	0	0	0	1570.02	10	1.47734	9.99618	8.89533	8.89533	0	2.47093	11	0.00339666	0.000000000000000E+000	3.59195e+07	0.000000000000000E+000	0.000000000000000E+000	2.47093	2.47093	0.0000000E+000	0.000000000000000E+000	0.0147677
1	1	0	0	0	0	0	1594.02	10	1.4822	9.99618	9.13523	9.13523	0	2.53756	11	0.00349528	0.000000000000000E+000	3.61772e+07	0.000000000000000E+000	0.000000000000000E+000	2.53756	2.53756	0.0000000E+000	0.000000000000000E+000	0.0148164
1	1	0	0	0	0	0	1618.02	10	1.48711	9.99478	9.37513	9.37513	0	2.6042	11	0.00359422	0.000000000000000E+000	3.64199e+07	0.000000000000000E+000	0.000000000000000E+000	2.6042	2.6042	0.0000000E+000	0.000000000000000E+000	0.0148633
1	1	0	0	0	0	0	1642.02	10	1.49131	9.99529	9.61504	9.61504	0	2.67084	11	0.00369348	0.000000000000000E+000	3.67525e+07	0.000000000000000E+000	0.000000000000000E+000	2.67084	2.67084	0.0000000E+000	0.000000000000000E+000	0.014906
1	1	0	0	0	0	0	1666.02	10	1.49596	9.99599	9.85494	9.85494	0	2.73748	11	0.00379306	0.000000000000000E+000	3.70105e+07	0.000000000000000E+000	0.000000000000000E+000	2.73748	2.73748	0.0000000E+000	0.000000000000000E+000	0.0149536
1	1	0	0	0	0	0	1690.02	10	1.50078	9.99599	10.0948	10.0948	0	2.80412	11	0.00389295	0.000000000000000E+000	3.72387e+07	0.000000000000000E+000	0.000000000000000E+000	2.80412	2.80412	0.0000000E+000	0.000000000000000E+000	0.0150017
1	1	0	0	0	0	0	1714.02	10	1.5073	9.99561	10.3347	10.3347	0	2.87076	11	0.00399322	0.000000000000000E+000	3.72274e+07	0.000000000000000E+000	0.000000000000000E+000	2.87076	2.87076	0.0000000E+000	0.000000000000000E+000	0.0150664
1	1	0	0	0	0	0	1715.73	10	5.14477	9.99606	10.3518	10.3518	0	2.87551	11	0.00400035	0.000000000000000E+000	2.64409e+06	0.000000000000000E+000	0.000000000000000E+000	2.87551	2.87551	0.0000000E+000	0.000000000000000E+000	0.0514274