File: Lares Oxides/2024-6-20 Ni65Co32Fe3Ox on FTO_1_00mg_01_PEIS_C05.mpt
EC-Lab ASCII FILE
Nb header lines : 65

Potentio Electrochemical Impedance Spectroscopy

Run on channel : 5 (SN 39658)
User :
CE vs. WE compliance from -10 V to 10 V
Electrode connection : standard
Potential control : Ewe
Ewe ctrl range : min = -2.50 V, max = 2.50 V
Safety Limits :
	Do not start on E overload
Acquisition started on : 06/20/2024 08:28:43.483
Technique started on : 06/20/2024 08:28:44.979
Loaded Setting File :  NONE
Saved on :
	File : 2024-6-20 Ni65Co32Fe3Ox on FTO_1_00mg_01_PEIS_C05.mpr
	Directory : C:\Users\sfolkman\OneDrive - New Mexico State University\Folkman Group Folder\Scott\
	Host : 172.24.124.15
Device : VSP (SN 1910)
Address : USB
EC-Lab for windows v11.46 (software)
Internet server v11.40 (firmware)
Command interpretor v11.40 (firmware)
Electrode material :
Initial state :
Electrolyte :
Comments :
Current amplifier : VSPB-4A
Electrode surface area : 0.001 cm²
Characteristic mass : 0.001 g
Equivalent Weight : 0.000 g/eq.
Density : 0.000 g/cm3
Volume (V) : 0.001 cm³
Cycle Definition : Charge/Discharge alternance
Mode                Single sine
E (V)               0.0000
vs.                 Eoc
tE (h:m:s)          0:00:0.0000
record              0
dI                  0.000
unit dI             mA
dt (s)              0.000
fi                  200.000
unit fi             kHz
ff                  100.000
unit ff             mHz
Nd                  6
Points              per decade
spacing             Logarithmic
Va (mV)             10.0
pw                  0.10
Na                  2
corr                0
E range min (V)     -2.500
E range max (V)     2.500
I Range             Auto
Bandwidth           4
nc cycles           0
goto Ns'            0
nr cycles           0
inc. cycle          0

freq/Hz	Re(Z)/Ohm	-Im(Z)/Ohm	|Z|/Ohm	Phase(Z)/deg	time/s	<Ewe>/V	<I>/mA	Cs/µF	Cp/µF	cycle number	I Range	|Ewe|/V	|I|/A	Ns	(Q-Qo)/mA.h	Re(Y)/Ohm-1	Im(Y)/Ohm-1	|Y|/Ohm-1	Phase(Y)/deg	Re(C)/nF	Im(C)/nF	|C|/nF	Phase(C)/deg	Re(M)	Im(M)	|M|	Phase(M)/deg	Re(Permittivity)	Im(Permittivity)	|Permittivity|	Phase(Permittivity)/deg	Re(Resistivity)/Ohm.cm	Im(Resistivity)/Ohm.cm	|Resistivity|/Ohm.cm	Phase(Resistivity)/deg	Re(Conductivity)/mS/cm	Im(Conductivity)/mS/cm	|Conductivity|/mS/cm	Phase(Conductivity)/deg	Tan(Delta)	Loss Angle(Delta)/deg	dq/mA.h
199998	8.546	16.5955	18.6667	-62.7534	1.49649	0.032708	-0.0102365	0.0479517	0.037901	1	10	0.00984018	0.000527153	0	-3.6769e-06	0.0245262	0.0476274	0.0535715	62.7534	37.901	19.5175	42.6312	-27.2466	0.0000000E+000	0.0000000E+000	0.0000000E+000	27.2466	0.0000000E+000	0.0000000E+000	0.0000000E+000	-27.2466	0.0000000E+000	0.0000000E+000	0.0000000E+000	-62.7534	0.0000000E+000	0.0000000E+000	0.0000000E+000	62.7534	0.514959	62.7534	-3.6769e-06
91291.2	18.2272	12.9123	22.3374	-35.3141	2.68648	0.0328024	-0.0108526	0.135016	0.045116	1	10	0.0102987	0.000461053	0	-1.24078e-05	0.0365304	0.0258785	0.044768	35.3141	45.116	63.6863	78.0474	-54.6859	0.0000000E+000	0.0000000E+000	0.0000000E+000	54.6859	0.0000000E+000	0.0000000E+000	0.0000000E+000	-54.6859	0.0000000E+000	0.0000000E+000	0.0000000E+000	-35.3141	0.0000000E+000	0.0000000E+000	0.0000000E+000	35.3141	1.41161	35.3141	-5.31806e-06
41669.8	20.2841	4.19958	20.7143	-11.6972	3.57849	0.032818	-0.00988477	0.90948	0.0373824	1	10	0.0104398	0.000503993	0	-6.16333e-06	0.0472734	0.0097874	0.0482759	11.6972	37.3824	180.558	184.387	-78.3028	0.0000000E+000	0.0000000E+000	0.0000000E+000	78.3028	0.0000000E+000	0.0000000E+000	0.0000000E+000	-78.3028	0.0000000E+000	0.0000000E+000	0.0000000E+000	-11.6972	0.0000000E+000	0.0000000E+000	0.0000000E+000	11.6972	4.83002	11.6972	1.89423e-06
19020.9	19.3629	2.36777	19.5071	-6.97172	4.47048	0.0327745	-0.0119302	3.53386	0.0520643	1	10	0.0101896	0.000522353	0	3.21968e-07	0.0508842	0.00622231	0.0512633	6.97172	52.0642	425.767	428.938	-83.0283	0.0000000E+000	0.0000000E+000	0.0000000E+000	83.0283	0.0000000E+000	0.0000000E+000	0.0000000E+000	-83.0283	0.0000000E+000	0.0000000E+000	0.0000000E+000	-6.97172	0.0000000E+000	0.0000000E+000	0.0000000E+000	6.97172	8.17771	6.97172	4.47557e-06
8683.37	19.3672	2.43135	19.5192	-7.15546	5.39	0.0328113	-0.00992385	7.5385	0.116965	1	10	0.010153	0.000520157	0	-2.65868e-06	0.0508326	0.00638151	0.0512316	7.15546	116.965	931.697	939.01	-82.8445	0.0000000E+000	0.0000000E+000	0.0000000E+000	82.8445	0.0000000E+000	0.0000000E+000	0.0000000E+000	-82.8445	0.0000000E+000	0.0000000E+000	0.0000000E+000	-7.15546	0.0000000E+000	0.0000000E+000	0.0000000E+000	7.15546	7.96561	7.15546	-5.96191e-06
3961.2	20.1998	3.78848	20.552	-10.6224	6.50294	0.0328618	-0.0122615	10.6054	0.360372	1	10	0.0104268	0.00050734	0	-2.76466e-06	0.0478232	0.00896927	0.0486571	10.6224	360.371	1921.47	1954.97	-79.3776	0.0000000E+000	0.0000000E+000	0.0000000E+000	79.3776	0.0000000E+000	0.0000000E+000	0.0000000E+000	-79.3776	0.0000000E+000	0.0000000E+000	0.0000000E+000	-10.6224	0.0000000E+000	0.0000000E+000	0.0000000E+000	10.6224	5.3319	10.6224	-9.24239e-07
1808.26	21.3846	6.75366	22.4257	-17.5271	7.45097	0.0328515	-0.0123323	13.0322	1.18197	1	10	0.0107732	0.000480395	0	-3.1545e-06	0.0425215	0.0134291	0.0445917	17.5271	1181.97	3742.54	3924.75	-72.4729	0.0000000E+000	0.0000000E+000	0.0000000E+000	72.4729	0.0000000E+000	0.0000000E+000	0.0000000E+000	-72.4729	0.0000000E+000	0.0000000E+000	0.0000000E+000	-17.5271	0.0000000E+000	0.0000000E+000	0.0000000E+000	17.5271	3.16637	17.5271	8.89707e-07
825.264	23.4645	11.8123	26.27	-26.7213	8.39769	0.0328743	-0.0126468	16.3265	3.30097	1	10	0.010692	0.000407005	0	-6.3666e-06	0.0340009	0.0171165	0.0380662	26.7213	3300.97	6557.2	7341.2	-63.2787	0.0000000E+000	0.0000000E+000	0.0000000E+000	63.2787	0.0000000E+000	0.0000000E+000	0.0000000E+000	-63.2787	0.0000000E+000	0.0000000E+000	0.0000000E+000	-26.7213	0.0000000E+000	0.0000000E+000	0.0000000E+000	26.7213	1.98644	26.7213	-3.36043e-06
377.051	27.4366	21.3753	34.7803	-37.9215	9.84269	0.0328117	-0.00174184	19.7473	7.45874	1	11	0.00996997	0.000286656	0	-1.02226e-05	0.0226811	0.0176704	0.0287519	37.9215	7458.74	9573.77	12136.3	-52.0785	0.0000000E+000	0.0000000E+000	0.0000000E+000	52.0785	0.0000000E+000	0.0000000E+000	0.0000000E+000	-52.0785	0.0000000E+000	0.0000000E+000	0.0000000E+000	-37.9215	0.0000000E+000	0.0000000E+000	0.0000000E+000	37.9215	1.28356	37.9215	-1.52904e-06
172.037	33.9637	38.7945	51.5611	-48.7986	10.7854	0.0328385	-0.00169027	23.8467	13.4997	1	11	0.0097926	0.000189922	0	-1.02322e-05	0.0127753	0.0145924	0.0193945	48.7986	13499.7	11818.7	17942.2	-41.2014	0.0000000E+000	0.0000000E+000	0.0000000E+000	41.2014	0.0000000E+000	0.0000000E+000	0.0000000E+000	-41.2014	0.0000000E+000	0.0000000E+000	0.0000000E+000	-48.7986	0.0000000E+000	0.0000000E+000	0.0000000E+000	48.7986	0.875476	48.7986	6.77147e-07
78.5176	45.8857	69.4699	83.2561	-56.5548	11.7375	0.0328655	-0.00191219	29.178	20.3151	1	11	0.00983165	0.000118089	0	-1.02565e-05	0.00661982	0.0100222	0.0120111	56.5548	20315.1	13418.3	24346.5	-33.4452	0.0000000E+000	0.0000000E+000	0.0000000E+000	33.4452	0.0000000E+000	0.0000000E+000	0.0000000E+000	-33.4452	0.0000000E+000	0.0000000E+000	0.0000000E+000	-56.5548	0.0000000E+000	0.0000000E+000	0.0000000E+000	56.5548	0.660512	56.5548	-5.52725e-07
35.8372	66.4421	127.007	143.336	-62.3842	12.6901	0.0328167	-0.00244521	34.9672	27.4538	1	11	0.00964212	6.72693e-05	0	-1.17418e-05	0.00323394	0.0061818	0.00697661	62.3842	27453.8	14362.1	30983.5	-27.6158	0.0000000E+000	0.0000000E+000	0.0000000E+000	27.6158	0.0000000E+000	0.0000000E+000	0.0000000E+000	-27.6158	0.0000000E+000	0.0000000E+000	0.0000000E+000	-62.3842	0.0000000E+000	0.0000000E+000	0.0000000E+000	62.3842	0.523139	62.3842	-1.30079e-06
16.367	94.7488	249.009	266.426	-69.168	13.8851	0.0327909	-0.000261683	39.0515	34.1125	1	12	0.00962159	3.61136e-05	0	-1.21764e-05	0.00133482	0.00350802	0.00375339	69.168	34112.5	12980	36498.6	-20.832	0.0000000E+000	0.0000000E+000	0.0000000E+000	20.832	0.0000000E+000	0.0000000E+000	0.0000000E+000	-20.832	0.0000000E+000	0.0000000E+000	0.0000000E+000	-69.168	0.0000000E+000	0.0000000E+000	0.0000000E+000	69.168	0.380504	69.168	-2.44485e-07
7.46893	158.913	475.867	501.7	-71.5336	14.6596	0.03278	-0.000175759	44.7791	40.2865	1	12	0.00965016	1.92349e-05	0	-1.20003e-05	0.000631352	0.00189059	0.00199322	71.5336	40286.4	13453.4	42473.4	-18.4664	0.0000000E+000	0.0000000E+000	0.0000000E+000	18.4664	0.0000000E+000	0.0000000E+000	0.0000000E+000	-18.4664	0.0000000E+000	0.0000000E+000	0.0000000E+000	-71.5336	0.0000000E+000	0.0000000E+000	0.0000000E+000	71.5336	0.333944	71.5336	4.28287e-07
3.4086	274.694	848.879	892.217	-72.0686	16.1572	0.0327807	-9.32895e-05	55.0046	49.7908	1	13	0.00963806	1.08024e-05	0	-1.23318e-05	0.00034507	0.00106636	0.0011208	72.0686	49790.8	16112.1	52332.8	-17.9314	0.0000000E+000	0.0000000E+000	0.0000000E+000	17.9314	0.0000000E+000	0.0000000E+000	0.0000000E+000	-17.9314	0.0000000E+000	0.0000000E+000	0.0000000E+000	-72.0686	0.0000000E+000	0.0000000E+000	0.0000000E+000	72.0686	0.323596	72.0686	1.35284e-07
1.55627	559.571	1845	1927.99	-73.128	18.5157	0.0328495	-0.000359045	55.429	50.7599	1	13	0.00969342	5.02773e-06	0	-1.24809e-05	0.000150538	0.000496348	0.000518675	73.128	50759.9	15395	53043.1	-16.872	0.0000000E+000	0.0000000E+000	0.0000000E+000	16.872	0.0000000E+000	0.0000000E+000	0.0000000E+000	-16.872	0.0000000E+000	0.0000000E+000	0.0000000E+000	-73.128	0.0000000E+000	0.0000000E+000	0.0000000E+000	73.128	0.30329	73.128	-3.77363e-07
0.710357	1142.84	3365.07	3553.84	-71.2416	48.7844	0.032848	0.000227739	66.5809	59.6956	1	13	0.0104041	2.92758e-06	0	-1.33372e-05	9.04877e-05	0.00026644	0.000281386	71.2416	59695.6	20273.7	63044.4	-18.7584	0.0000000E+000	0.0000000E+000	0.0000000E+000	18.7584	0.0000000E+000	0.0000000E+000	0.0000000E+000	-18.7584	0.0000000E+000	0.0000000E+000	0.0000000E+000	-71.2416	0.0000000E+000	0.0000000E+000	0.0000000E+000	71.2416	0.339618	71.2416	-4.98177e-07
0.324439	2049.97	6507.24	6822.51	-72.514	113.14	0.0328495	-0.00012297	75.3858	68.5797	1	13	0.0104033	1.52486e-06	0	-1.37069e-05	4.40413e-05	0.000139801	0.000146574	72.514	68579.7	21604.6	71902.3	-17.486	0.0000000E+000	0.0000000E+000	0.0000000E+000	17.486	0.0000000E+000	0.0000000E+000	0.0000000E+000	-17.486	0.0000000E+000	0.0000000E+000	0.0000000E+000	-72.514	0.0000000E+000	0.0000000E+000	0.0000000E+000	72.514	0.31503	72.514	-8.84378e-07
0.147897	4554.69	11879	12722.2	-69.022	252.372	0.03285	-0.000104687	90.5904	78.9793	1	13	0.0104037	8.17756e-07	0	-1.68652e-05	2.81405e-05	7.33925e-05	7.86025e-05	69.022	78979.3	30282.6	84585.8	-20.978	0.0000000E+000	0.0000000E+000	0.0000000E+000	20.978	0.0000000E+000	0.0000000E+000	0.0000000E+000	-20.978	0.0000000E+000	0.0000000E+000	0.0000000E+000	-69.022	0.0000000E+000	0.0000000E+000	0.0000000E+000	69.022	0.383424	69.022	-1.75501e-06
0.0999041	8865.47	20266.8	22121.1	-66.3736	283.52	0.032845	-8.26545e-05	78.6051	65.9798	1	14	0.0104081	4.70508e-07	0	-1.78472e-05	1.81172e-05	4.14166e-05	4.52058e-05	66.3736	65979.8	28862	72016.3	-23.6264	0.0000000E+000	0.0000000E+000	0.0000000E+000	23.6264	0.0000000E+000	0.0000000E+000	0.0000000E+000	-23.6264	0.0000000E+000	0.0000000E+000	0.0000000E+000	-66.3736	0.0000000E+000	0.0000000E+000	0.0000000E+000	66.3736	0.437437	66.3736	-9.82082e-07