File: Lares Oxides/2024-6-26 CoOx on FTO_1_03mg_03_CP_C05.mpt
EC-Lab ASCII FILE
Nb header lines : 55

Chronopotentiometry

Run on channel : 5 (SN 39658)
User :
CE vs. WE compliance from -10 V to 10 V
Electrode connection : standard
Potential control : Ewe
Ewe ctrl range : min = -2.50 V, max = 2.50 V
Safety Limits :
	Do not start on E overload
Acquisition started on : 06/26/2024 14:29:21.159
Technique started on : 06/26/2024 14:40:43.098
Loaded Setting File :  C:\Users\sfolkman\OneDrive - New Mexico State University\Folkman Group Folder\Scott\2024-6-19 FeOx on FTO_1_03mg.mps
Saved on :
	File : 2024-6-26 CoOx on FTO_1_03mg_03_CP_C05.mpr
	Directory : C:\Users\sfolkman\OneDrive - New Mexico State University\Folkman Group Folder\Scott\
	Host : 172.24.124.15
Device : VSP (SN 1910)
Address : USB
EC-Lab for windows v11.46 (software)
Internet server v11.40 (firmware)
Command interpretor v11.40 (firmware)
Electrode material :
Initial state :
Electrolyte :
Comments :
Current amplifier : VSPB-4A
Electrode surface area : 0.001 cm²
Characteristic mass : 0.001 g
Equivalent Weight : 0.000 g/eq.
Density : 0.000 g/cm3
Volume (V) : 0.001 cm³
Record Ece
Cycle Definition : Charge/Discharge alternance
Is                  10.000
unit Is             mA
vs.                 <None>
ts (h:m:s)          48:00:0.0000
EM (V)              5.000
dQM                 480.000
unit dQM            mA.h
record              <Ewe>
dEs (mV)            0.00
dts (s)             2.0000
E range min (V)     -2.500
E range max (V)     2.500
I Range             10 mA
Bandwidth           4
goto Ns'            0
nc cycles           0

mode	ox/red	error	control changes	Ns changes	counter inc.	Ns	time/s	control/mA	<Ewe>/V	I/mA	dQ/C	(Q-Qo)/C	half cycle	Q charge/discharge/mA.h	I Range	<Ece>/V	Energy charge/W.h	Energy discharge/W.h	Capacitance charge/µF	Capacitance discharge/µF	Q discharge/mA.h	Q charge/mA.h	Capacity/mA.h	Efficiency/%	cycle number	P/W	Ewe-Ece/V
1	1	0	0	0	0	0	681.939	10	1.17008	9.9958	0.0189722	0.0189722	0	0.00527005	11	-1.00648	6.1664e-06	0.000000000000000E+000	0.000000000000000E+000	0.000000000000000E+000	0.000000000000000E+000	0.00527005	0.00527005	0.0000000E+000	0.000000000000000E+000	0.0116959	2.17657
1	1	0	0	0	0	0	809.939	10	1.30062	9.9958	1.29844	1.29844	0	0.360678	11	-1.07299	0.000455797	0.000000000000000E+000	9.94675e+06	0.000000000000000E+000	0.000000000000000E+000	0.360678	0.360678	0.0000000E+000	0.000000000000000E+000	0.0130008	2.37361
1	1	0	0	0	0	0	937.939	10	1.30736	9.99523	2.5779	2.5779	0	0.716085	11	-1.0846	0.00092055	0.000000000000000E+000	1.87783e+07	0.000000000000000E+000	0.000000000000000E+000	0.716085	0.716085	0.0000000E+000	0.000000000000000E+000	0.0130674	2.39196
1	1	0	0	0	0	0	1065.94	10	1.34474	9.99548	3.85737	3.85737	0	1.07149	11	-1.09636	0.00139189	0.000000000000000E+000	2.20849e+07	0.000000000000000E+000	0.000000000000000E+000	1.07149	1.07149	0.0000000E+000	0.000000000000000E+000	0.0134414	2.4411
1	1	0	0	0	0	0	1193.94	10	1.34436	9.99701	5.13683	5.13683	0	1.4269	11	-1.10531	0.0018687	0.000000000000000E+000	2.94754e+07	0.000000000000000E+000	0.000000000000000E+000	1.4269	1.4269	0.0000000E+000	0.000000000000000E+000	0.0134396	2.44967
1	1	0	0	0	0	0	1321.94	10	1.36824	9.99612	6.41629	6.41629	0	1.7823	11	-1.11267	0.00235226	0.000000000000000E+000	3.23807e+07	0.000000000000000E+000	0.000000000000000E+000	1.7823	1.7823	0.0000000E+000	0.000000000000000E+000	0.013677	2.48091
1	1	0	0	0	0	0	1449.94	10	1.39457	9.99586	7.69574	7.69574	0	2.13771	11	-1.12074	0.00284451	0.000000000000000E+000	3.42813e+07	0.000000000000000E+000	0.000000000000000E+000	2.13771	2.13771	0.0000000E+000	0.000000000000000E+000	0.0139399	2.51531
1	1	0	0	0	0	0	1577.94	10	1.42524	9.99567	8.97521	8.97521	0	2.49311	11	-1.12769	0.0033452	0.000000000000000E+000	3.51755e+07	0.000000000000000E+000	0.000000000000000E+000	2.49311	2.49311	0.0000000E+000	0.000000000000000E+000	0.0142462	2.55293
1	1	0	0	0	0	0	1705.94	10	1.44221	9.99586	10.2547	10.2547	0	2.84852	11	-1.13289	0.00385356	0.000000000000000E+000	3.76831e+07	0.000000000000000E+000	0.000000000000000E+000	2.84852	2.84852	0.0000000E+000	0.000000000000000E+000	0.0144162	2.5751
1	1	0	0	0	0	0	1833.94	10	1.47305	9.99606	11.5341	11.5341	0	3.20392	11	-1.13724	0.0043715	0.000000000000000E+000	3.807e+07	0.000000000000000E+000	0.000000000000000E+000	3.20392	3.20392	0.0000000E+000	0.000000000000000E+000	0.0147247	2.61029
1	1	0	0	0	0	0	1961.94	10	1.48515	9.99669	12.8136	12.8136	0	3.55933	11	-1.14236	0.00489783	0.000000000000000E+000	4.06691e+07	0.000000000000000E+000	0.000000000000000E+000	3.55933	3.55933	0.0000000E+000	0.000000000000000E+000	0.0148466	2.62751
1	1	0	0	0	0	0	2089.94	10	1.50842	9.99574	14.093	14.093	0	3.91473	11	-1.14644	0.00543139	0.000000000000000E+000	4.1654e+07	0.000000000000000E+000	0.000000000000000E+000	3.91473	3.91473	0.0000000E+000	0.000000000000000E+000	0.0150778	2.65486
1	1	0	0	0	0	0	2217.94	10	1.52488	9.99536	15.3725	15.3725	0	4.27014	11	-1.14932	0.00597067	0.000000000000000E+000	4.33272e+07	0.000000000000000E+000	0.000000000000000E+000	4.27014	4.27014	0.0000000E+000	0.000000000000000E+000	0.0152418	2.6742
1	1	0	0	0	0	0	2345.94	10	1.54364	9.99555	16.652	16.652	0	4.62554	11	-1.15376	0.00651695	0.000000000000000E+000	4.45766e+07	0.000000000000000E+000	0.000000000000000E+000	4.62554	4.62554	0.0000000E+000	0.000000000000000E+000	0.0154295	2.6974
1	1	0	0	0	0	0	2473.94	10	1.55951	9.99548	17.9314	17.9314	0	4.98095	11	-1.15639	0.00707029	0.000000000000000E+000	4.60454e+07	0.000000000000000E+000	0.000000000000000E+000	4.98095	4.98095	0.0000000E+000	0.000000000000000E+000	0.0155881	2.71591
1	1	0	0	0	0	0	2601.94	10	1.58338	9.99555	19.2109	19.2109	0	5.33636	11	-1.15757	0.00763011	0.000000000000000E+000	4.64816e+07	0.000000000000000E+000	0.000000000000000E+000	5.33636	5.33636	0.0000000E+000	0.000000000000000E+000	0.0158268	2.74095
1	1	0	0	0	0	0	2729.94	10	1.59432	9.99516	20.4903	20.4903	0	5.69176	11	-1.15959	0.00819629	0.000000000000000E+000	4.82995e+07	0.000000000000000E+000	0.000000000000000E+000	5.69176	5.69176	0.0000000E+000	0.000000000000000E+000	0.0159355	2.75391
1	1	0	0	0	0	0	2857.94	10	1.62381	9.99561	21.7698	21.7698	0	6.04717	11	-1.16323	0.00876871	0.000000000000000E+000	4.79804e+07	0.000000000000000E+000	0.000000000000000E+000	6.04717	6.04717	0.0000000E+000	0.000000000000000E+000	0.0162309	2.78704
1	1	0	0	0	0	0	2985.94	10	1.6345	9.99599	23.0493	23.0493	0	6.40257	11	-1.16441	0.00934523	0.000000000000000E+000	4.96304e+07	0.000000000000000E+000	0.000000000000000E+000	6.40257	6.40257	0.0000000E+000	0.000000000000000E+000	0.0163385	2.79892
1	1	0	0	0	0	0	3113.94	10	1.64635	9.99523	24.3287	24.3287	0	6.75798	11	-1.16573	0.00992688	0.000000000000000E+000	5.10826e+07	0.000000000000000E+000	0.000000000000000E+000	6.75798	6.75798	0.0000000E+000	0.000000000000000E+000	0.0164556	2.81207
1	1	0	0	0	0	0	3241.94	10	1.65414	9.99536	25.6082	25.6082	0	7.11338	11	-1.16864	0.0105123	0.000000000000000E+000	5.29031e+07	0.000000000000000E+000	0.000000000000000E+000	7.11338	7.11338	0.0000000E+000	0.000000000000000E+000	0.0165337	2.82278
1	1	0	0	0	0	0	3369.94	10	1.67102	9.9958	26.8876	26.8876	0	7.46879	11	-1.16961	0.0111021	0.000000000000000E+000	5.3675e+07	0.000000000000000E+000	0.000000000000000E+000	7.46879	7.46879	0.0000000E+000	0.000000000000000E+000	0.0167032	2.84063
1	1	0	0	0	0	0	3497.94	10	1.6874	9.99574	28.1671	28.1671	0	7.8242	11	-1.171	0.0116972	0.000000000000000E+000	5.44488e+07	0.000000000000000E+000	0.000000000000000E+000	7.8242	7.8242	0.0000000E+000	0.000000000000000E+000	0.0168668	2.85839
1	1	0	0	0	0	0	3625.94	10	1.69001	9.99561	29.4466	29.4466	0	8.1796	11	-1.17413	0.012298	0.000000000000000E+000	5.66359e+07	0.000000000000000E+000	0.000000000000000E+000	8.1796	8.1796	0.0000000E+000	0.000000000000000E+000	0.0168927	2.86414
1	1	0	0	0	0	0	3753.94	10	1.69217	9.99536	30.726	30.726	0	8.53501	11	-1.17451	0.0129001	0.000000000000000E+000	5.88524e+07	0.000000000000000E+000	0.000000000000000E+000	8.53501	8.53501	0.0000000E+000	0.000000000000000E+000	0.0169138	2.86668
1	1	0	0	0	0	0	3881.94	10	1.70334	9.99459	32.0055	32.0055	0	8.89041	11	-1.17592	0.0135061	0.000000000000000E+000	6.00187e+07	0.000000000000000E+000	0.000000000000000E+000	8.89041	8.89041	0.0000000E+000	0.000000000000000E+000	0.0170242	2.87926
1	1	0	0	0	0	0	4009.94	10	1.71184	9.99586	33.2849	33.2849	0	9.24581	11	-1.17627	0.0141169	0.000000000000000E+000	6.14391e+07	0.000000000000000E+000	0.000000000000000E+000	9.24581	9.24581	0.0000000E+000	0.000000000000000E+000	0.0171113	2.8881
1	1	0	0	0	0	0	4137.94	10	1.72345	9.99625	34.5644	34.5644	0	9.60122	11	-1.17905	0.0147286	0.000000000000000E+000	6.24626e+07	0.000000000000000E+000	0.000000000000000E+000	9.60122	9.60122	0.0000000E+000	0.000000000000000E+000	0.017228	2.9025
1	1	0	0	0	0	0	4265.94	10	1.72826	9.9958	35.8438	35.8438	0	9.95662	11	-1.17976	0.015342	0.000000000000000E+000	6.4216e+07	0.000000000000000E+000	0.000000000000000E+000	9.95662	9.95662	0.0000000E+000	0.000000000000000E+000	0.0172753	2.90802
1	1	0	0	0	0	0	4393.94	10	1.73809	9.99606	37.1233	37.1233	0	10.312	11	-1.17941	0.0159581	0.000000000000000E+000	6.53568e+07	0.000000000000000E+000	0.000000000000000E+000	10.312	10.312	0.0000000E+000	0.000000000000000E+000	0.0173741	2.9175
1	1	0	0	0	0	0	4521.94	10	1.74698	9.99542	38.4027	38.4027	0	10.6674	11	-1.18199	0.0165784	0.000000000000000E+000	6.65683e+07	0.000000000000000E+000	0.000000000000000E+000	10.6674	10.6674	0.0000000E+000	0.000000000000000E+000	0.0174618	2.92897
1	1	0	0	0	0	0	4649.94	10	1.75192	9.99542	39.6822	39.6822	0	11.0228	11	-1.18287	0.0172005	0.000000000000000E+000	6.82015e+07	0.000000000000000E+000	0.000000000000000E+000	11.0228	11.0228	0.0000000E+000	0.000000000000000E+000	0.0175112	2.9348
1	1	0	0	0	0	0	4777.94	10	1.76063	9.99606	40.9617	40.9617	0	11.3782	11	-1.18244	0.0178251	0.000000000000000E+000	6.93626e+07	0.000000000000000E+000	0.000000000000000E+000	11.3782	11.3782	0.0000000E+000	0.000000000000000E+000	0.0175993	2.94307
1	1	0	0	0	0	0	4905.94	10	1.76426	9.99574	42.2411	42.2411	0	11.7336	11	-1.18557	0.0184524	0.000000000000000E+000	7.10918e+07	0.000000000000000E+000	0.000000000000000E+000	11.7336	11.7336	0.0000000E+000	0.000000000000000E+000	0.0176351	2.94983
1	1	0	0	0	0	0	5033.94	10	1.78781	9.99612	43.5206	43.5206	0	12.089	11	-1.18613	0.019083	0.000000000000000E+000	7.04532e+07	0.000000000000000E+000	0.000000000000000E+000	12.089	12.089	0.0000000E+000	0.000000000000000E+000	0.0178711	2.97394
1	1	0	0	0	0	0	5161.94	10	1.79172	9.99561	44.8	44.8	0	12.4444	11	-1.18672	0.0197176	0.000000000000000E+000	7.20673e+07	0.000000000000000E+000	0.000000000000000E+000	12.4444	12.4444	0.0000000E+000	0.000000000000000E+000	0.0179094	2.97845
1	1	0	0	0	0	0	5289.94	10	1.80329	9.9958	46.0794	46.0794	0	12.7998	11	-1.18735	0.0203561	0.000000000000000E+000	7.2772e+07	0.000000000000000E+000	0.000000000000000E+000	12.7998	12.7998	0.0000000E+000	0.000000000000000E+000	0.0180253	2.99063
1	1	0	0	0	0	0	5417.94	10	1.8085	9.99516	47.3589	47.3589	0	13.1552	11	-1.19017	0.0209972	0.000000000000000E+000	7.41819e+07	0.000000000000000E+000	0.000000000000000E+000	13.1552	13.1552	0.0000000E+000	0.000000000000000E+000	0.0180762	2.99867
1	1	0	0	0	0	0	5545.94	10	1.82005	9.99516	48.6383	48.6383	0	13.5106	11	-1.18768	0.0216423	0.000000000000000E+000	7.48317e+07	0.000000000000000E+000	0.000000000000000E+000	13.5106	13.5106	0.0000000E+000	0.000000000000000E+000	0.0181917	3.00773
1	1	0	0	0	0	0	5673.94	10	1.82389	9.99561	49.9178	49.9178	0	13.866	11	-1.19037	0.0222905	0.000000000000000E+000	7.63497e+07	0.000000000000000E+000	0.000000000000000E+000	13.866	13.866	0.0000000E+000	0.000000000000000E+000	0.0182309	3.01426
1	1	0	0	0	0	0	5801.94	10	1.83732	9.99593	51.1972	51.1972	0	14.2214	11	-1.18826	0.0229418	0.000000000000000E+000	7.67304e+07	0.000000000000000E+000	0.000000000000000E+000	14.2214	14.2214	0.0000000E+000	0.000000000000000E+000	0.0183657	3.02558
1	1	0	0	0	0	0	5912.82	10	1.84568	9.99574	52.3055	52.3055	0	14.5293	11	-1.18693	0.0235086	0.000000000000000E+000	7.74214e+07	0.000000000000000E+000	0.000000000000000E+000	14.5293	14.5293	0.0000000E+000	0.000000000000000E+000	0.0184489	3.0326