File: Lares Oxides/2024-6-19 FeOx on FTO_1_03mg_02_CV_C05.mpt
EC-Lab ASCII FILE
Nb header lines : 59

Cyclic Voltammetry

Run on channel : 5 (SN 39658)
User :
CE vs. WE compliance from -10 V to 10 V
Electrode connection : standard
Potential control : Ewe
Ewe ctrl range : min = -2.50 V, max = 2.50 V
Safety Limits :
	Do not start on E overload
Acquisition started on : 06/19/2024 15:35:49.269
Technique started on : 06/19/2024 15:37:09.285
Loaded Setting File :  NONE
Saved on :
	File : 2024-6-19 FeOx on FTO_1_03mg_02_CV_C05.mpr
	Directory : C:\Users\sfolkman\OneDrive - New Mexico State University\Folkman Group Folder\Scott\
	Host : 172.24.124.15
Device : VSP (SN 1910)
Address : USB
EC-Lab for windows v11.46 (software)
Internet server v11.40 (firmware)
Command interpretor v11.40 (firmware)
Electrode material :
Initial state :
Electrolyte :
Comments :
Current amplifier : VSPB-4A
Electrode surface area : 0.001 cm²
Characteristic mass : 0.001 g
Equivalent Weight : 0.000 g/eq.
Density : 0.000 g/cm3
Volume (V) : 0.001 cm³
Cycle Definition : Charge/Discharge alternance
Ei (V)              0.000
vs.                 Eoc
dE/dt               10.000
dE/dt unit          mV/s
E1 (V)              1.000
vs.                 Ref
Step percent        50
N                   10
E range min (V)     -2.500
E range max (V)     2.500
I Range             Auto
I Range min         Unset
I Range max         Unset
I Range init        Unset
Bandwidth           4
E2 (V)              0.000
vs.                 Ref
nc cycles           2
Reverse Scan        1
Ef (V)              0.000
vs.                 Eoc

mode	ox/red	error	control changes	counter inc.	time/s	control/V	Ewe/V	<I>/mA	cycle number	(Q-Qo)/C	I Range	P/W
2	1	0	0	0	80.0156	0.042433	0.0397299	0.00140026	1	0.0000000E+000	14	5.5632e-08
2	0	0	1	0	84.502	0.0872969	0.087747	5.34109e-05	1	6.62089e-07	13	4.68665e-09
2	0	0	0	0	89.0034	0.132311	0.132927	0.000141867	1	1.00529e-06	13	1.8858e-08
2	1	0	1	0	93.5048	0.177325	0.177515	4.07115e-05	1	1.40299e-06	13	7.22688e-09
2	1	0	0	0	98.0062	0.222339	0.223021	-7.59599e-05	1	1.90368e-06	13	-1.69406e-08
2	1	0	1	0	102.508	0.267353	0.267977	4.31217e-06	1	2.58249e-06	13	1.15556e-09
2	0	0	0	0	107.009	0.312367	0.312684	0.000169528	1	3.47818e-06	13	5.30086e-08
2	0	0	1	0	111.51	0.357381	0.357917	0.000313541	1	4.59661e-06	13	1.12222e-07
2	0	0	0	0	116.012	0.402394	0.402798	0.000332683	1	5.90516e-06	13	1.34004e-07
2	1	0	1	0	120.513	0.447408	0.448138	0.000252739	1	7.25151e-06	13	1.13262e-07
2	1	0	0	0	125.015	0.492422	0.492722	0.000166104	1	8.74022e-06	13	8.18429e-08
2	1	0	1	0	129.516	0.537436	0.537839	0.000232519	1	1.04365e-05	13	1.25058e-07
2	1	0	0	0	134.017	0.58245	0.582755	0.000395269	1	1.23562e-05	13	2.30345e-07
2	1	0	1	0	138.519	0.627464	0.627836	0.000848142	1	1.50641e-05	13	5.32494e-07
2	1	0	0	0	143.02	0.672478	0.672943	0.00317536	1	2.31813e-05	13	2.13684e-06
2	1	0	1	0	147.522	0.717492	0.717706	0.0111765	1	5.27663e-05	13	8.02144e-06
2	1	0	0	0	152.023	0.762506	0.762848	0.0330073	1	0.000145852	13	2.51796e-05
2	1	0	1	0	156.524	0.80752	0.808354	0.0918455	1	0.000404384	13	7.42437e-05
2	1	0	0	0	161.056	0.852834	0.853236	0.260988	1	0.00114129	12	0.000222684
2	1	0	1	0	165.557	0.897848	0.898345	0.673127	1	0.00312813	12	0.000604701
2	1	0	0	0	170.089	0.943162	0.943758	1.43601	1	0.00777957	11	0.00135525
2	1	0	1	0	174.59	0.988176	0.988792	2.5014	1	0.0165567	11	0.00247336
2	1	0	0	0	178.932	0.96847	0.969034	1.84132	1	0.0269936	11	0.0017843
2	1	0	1	0	183.433	0.923456	0.924036	0.875085	1	0.0329134	11	0.000808611
2	1	0	0	0	187.965	0.878142	0.878392	0.366591	1	0.0355698	12	0.00032201
2	1	0	1	0	192.466	0.833128	0.833737	0.152219	1	0.036663	12	0.000126911
2	1	0	0	0	196.967	0.788114	0.788365	0.0642933	1	0.0371212	12	5.06865e-05
2	1	0	1	0	201.499	0.7428	0.743227	0.0261592	1	0.037314	13	1.94422e-05
2	1	0	0	0	206	0.697786	0.69825	0.009269	1	0.0373884	13	6.47208e-06
2	1	0	1	0	210.502	0.652772	0.653238	0.00225257	1	0.0374116	13	1.47146e-06
2	1	0	0	0	215.003	0.607758	0.607974	0.000262676	1	0.0374163	13	1.597e-07
2	1	0	1	0	219.504	0.562744	0.563176	-4.31347e-05	1	0.0374167	13	-2.42925e-08
2	1	0	0	0	224.006	0.51773	0.518355	2.45218e-05	1	0.0374164	13	1.2711e-08
2	1	0	1	0	228.507	0.472716	0.473307	-4.78709e-05	1	0.0374159	13	-2.26576e-08
2	0	0	0	0	233.009	0.427702	0.428126	-0.000136433	1	0.0374153	13	-5.84104e-08
2	0	0	1	0	237.51	0.382688	0.383036	-9.17201e-05	1	0.0374144	13	-3.51321e-08
2	0	0	0	0	242.011	0.337674	0.338076	1.71793e-05	1	0.0374135	13	5.8079e-09
2	0	0	1	0	246.513	0.292661	0.29304	-5.51797e-05	1	0.0374126	13	-1.61698e-08
2	0	0	0	0	251.014	0.247647	0.248059	-3.37933e-05	1	0.0374118	13	-8.38274e-09
2	0	0	1	0	255.516	0.202633	0.203039	1.27637e-05	1	0.0374111	13	2.59154e-09
2	0	0	0	0	260.017	0.157619	0.158138	-0.000128971	1	0.0374104	13	-2.03952e-08
2	1	0	1	0	264.518	0.112605	0.113131	-5.71006e-05	1	0.0374099	13	-6.45982e-09
2	1	0	0	0	269.02	0.0675908	0.0680277	-0.000239494	1	0.0374093	13	-1.62923e-08
2	1	0	1	0	273.521	0.0225769	0.0228729	-0.000160161	1	0.0374087	13	-3.66334e-09
2	1	0	0	1	277.933	0.0215766	0.0219138	1.28844e-05	1	0.0374085	13	2.82346e-10
2	1	0	1	1	282.284	0.0650901	0.0655993	-7.80044e-05	2	0.0374088	13	-5.11703e-09
2	1	0	0	1	286.786	0.110104	0.110488	-6.27531e-05	2	0.0374091	13	-6.93345e-09
2	1	0	1	1	291.287	0.155118	0.15544	9.96444e-05	2	0.0374095	13	1.54887e-08
2	0	0	0	1	295.789	0.200132	0.20035	3.97172e-05	2	0.0374099	13	7.95733e-09
2	0	0	1	1	300.29	0.245146	0.24551	0.000238979	2	0.0374104	13	5.86716e-08
2	0	0	0	1	304.791	0.29016	0.290656	0.000204377	2	0.0374111	13	5.94034e-08
2	0	0	1	1	309.293	0.335174	0.335555	0.000209869	2	0.037412	13	7.04227e-08
2	0	0	0	1	313.794	0.380188	0.380587	0.000285203	2	0.0374129	13	1.08545e-07
2	0	0	1	1	318.296	0.425202	0.425622	0.000251035	2	0.0374139	13	1.06846e-07
2	0	0	0	1	322.797	0.470216	0.470746	0.000183055	2	0.0374149	13	8.61725e-08
2	0	0	1	1	327.298	0.515229	0.515535	0.000115216	2	0.0374159	13	5.9398e-08
2	0	0	0	1	331.8	0.560243	0.560772	0.000203546	2	0.037417	13	1.14143e-07
2	1	0	1	1	336.301	0.605257	0.605708	0.000249819	2	0.0374183	13	1.51317e-07
2	1	0	0	1	340.803	0.650271	0.650754	0.00139936	2	0.037422	13	9.10637e-07
2	1	0	1	1	345.304	0.695285	0.695928	0.00691982	2	0.0374389	13	4.81569e-06
2	1	0	0	1	349.805	0.740299	0.740705	0.0219878	2	0.0374996	13	1.62865e-05
2	1	0	1	1	354.307	0.785313	0.78586	0.0564144	2	0.0376661	13	4.43338e-05
2	1	0	0	1	358.838	0.830627	0.831202	0.139706	2	0.0380832	12	0.000116124
2	1	0	1	1	363.34	0.875641	0.87616	0.346199	2	0.0391112	12	0.000303326
2	1	0	0	1	367.841	0.920655	0.921148	0.804734	2	0.0415867	12	0.00074128
2	1	0	1	1	372.372	0.965969	0.966825	1.6026	2	0.0469233	11	0.00154944
2	1	0	1	1	376.734	0.990477	0.990982	2.10804	2	0.0558416	11	0.00208903
2	1	0	1	1	381.235	0.945463	0.94594	1.06106	2	0.0627897	11	0.0010037
2	1	0	1	1	385.737	0.900448	0.900975	0.469427	2	0.0660763	11	0.000422942
2	1	0	1	1	390.268	0.855135	0.855574	0.203065	2	0.0675143	12	0.000173737
2	1	0	1	1	394.77	0.810121	0.810735	0.0900701	2	0.0681392	12	7.3023e-05
2	1	0	1	1	399.301	0.764807	0.765161	0.0384223	2	0.0684148	13	2.93993e-05
2	1	0	1	1	403.802	0.719793	0.720322	0.0149143	2	0.0685273	13	1.07431e-05
2	1	0	1	1	408.304	0.674779	0.675263	0.004334	2	0.0685665	13	2.92659e-06
2	0	0	1	1	412.805	0.629765	0.630252	0.000862718	2	0.0685759	13	5.4373e-07
2	0	0	1	1	417.307	0.58475	0.585136	7.12499e-06	2	0.068577	13	4.16909e-09
2	0	0	1	1	421.808	0.539737	0.540225	-6.65303e-06	2	0.0685768	13	-3.59413e-09
2	1	0	0	1	426.309	0.494723	0.495162	-5.31174e-05	2	0.0685763	13	-2.63017e-08
2	1	0	1	1	430.811	0.449709	0.450183	-0.000174724	2	0.0685756	13	-7.86576e-08
2	1	0	0	1	435.312	0.404695	0.405196	-0.000292301	2	0.0685748	13	-1.18439e-07
2	1	0	1	1	439.814	0.359681	0.359881	-0.000290879	2	0.0685739	13	-1.04682e-07
2	1	0	0	1	444.315	0.314667	0.315301	-0.000215096	2	0.068573	13	-6.782e-08
2	1	0	1	1	448.816	0.269653	0.270208	-0.000145198	2	0.0685721	13	-3.92336e-08
2	1	0	0	1	453.318	0.224639	0.224963	-0.000225008	2	0.0685713	13	-5.06184e-08
2	0	0	1	1	457.819	0.179626	0.179978	-8.53631e-05	2	0.0685707	13	-1.53635e-08
2	0	0	0	1	462.321	0.134612	0.13468	6.75561e-05	2	0.0685701	13	9.09846e-09
2	0	0	1	1	466.822	0.0895976	0.090167	-4.9708e-05	2	0.0685695	13	-4.48202e-09
2	0	0	0	1	471.323	0.0445837	0.0450917	-0.000138732	2	0.0685689	13	-6.25565e-09
2	1	0	0	0	475.78	1.98929e-05	-0.000143709	-0.000873494	2	0.0685683	13	1.25529e-10
2	0	0	1	0	480.087	0.0430832	0.0435354	0.000113418	3	0.0685686	13	4.93768e-09
2	0	0	1	0	484.588	0.0880965	0.0883934	5.65837e-05	3	0.0685688	13	5.00162e-09
2	1	0	1	0	489.089	0.133111	0.133473	-4.96589e-05	3	0.0685691	13	-6.6281e-09
2	1	0	1	0	493.591	0.178125	0.178464	-8.06817e-05	3	0.0685695	13	-1.43988e-08
2	1	0	1	0	498.092	0.223139	0.223528	9.66836e-05	3	0.06857	13	2.16115e-08
2	0	0	1	0	502.594	0.268153	0.268475	0.000202459	3	0.0685706	13	5.43553e-08
2	0	0	1	0	507.095	0.313168	0.31332	0.000177988	3	0.0685713	13	5.57671e-08
2	0	0	1	0	511.596	0.358182	0.358738	9.24722e-05	3	0.0685722	13	3.31732e-08
2	1	0	0	0	516.098	0.403195	0.403655	-2.83791e-05	3	0.0685731	13	-1.14554e-08
2	1	0	1	0	520.599	0.448209	0.448844	6.37628e-05	3	0.0685741	13	2.86196e-08
2	1	0	0	0	525.101	0.493223	0.493728	0.000171093	3	0.068575	13	8.44732e-08
2	0	0	1	0	529.602	0.538237	0.538572	0.000185816	3	0.0685759	13	1.00075e-07
2	0	0	0	0	534.103	0.583251	0.58345	0.000212784	3	0.0685769	13	1.24149e-07
2	0	0	1	0	538.605	0.628265	0.628793	0.000667912	3	0.0685787	13	4.19978e-07
2	1	0	0	0	543.106	0.673278	0.673894	0.0034301	3	0.0685868	13	2.31152e-06
2	1	0	1	0	547.608	0.718292	0.718847	0.0128091	3	0.0686204	13	9.20781e-06
2	1	0	0	0	552.109	0.763306	0.763601	0.0348118	3	0.0687217	13	2.65824e-05
2	1	0	1	0	556.61	0.80832	0.808999	0.0834868	3	0.0689733	13	6.75407e-05
2	1	0	0	0	561.142	0.853634	0.854188	0.198955	3	0.0695759	12	0.000169945
2	1	0	1	0	565.643	0.898648	0.899428	0.467386	3	0.0709964	12	0.00042038
2	1	0	0	0	570.145	0.943662	0.944161	1.01138	3	0.0742052	12	0.000954901
2	1	0	1	0	574.676	0.988976	0.989492	1.86955	3	0.0806301	11	0.00184991
2	1	0	0	0	579.038	0.96747	0.968004	1.32487	3	0.0883641	11	0.00128248
2	1	0	1	0	583.539	0.922456	0.923102	0.621495	3	0.0925783	11	0.000573703
2	1	0	0	0	588.071	0.877142	0.877828	0.277554	3	0.0945071	12	0.000243644
2	1	0	1	0	592.572	0.832128	0.832701	0.127655	3	0.095373	12	0.000106298
2	1	0	0	0	597.073	0.787114	0.78752	0.0576085	3	0.0957701	12	4.53679e-05
2	1	0	1	0	601.605	0.7418	0.742318	0.0237047	3	0.0959441	13	1.75964e-05
2	1	0	0	0	606.106	0.696786	0.697459	0.00811976	3	0.0960104	13	5.6632e-06
2	1	0	1	0	610.608	0.651772	0.65237	0.0016725	3	0.0960298	13	1.09109e-06
2	1	0	0	0	615.109	0.606758	0.607207	5.96488e-05	3	0.0960331	13	3.62191e-08
2	0	0	1	0	619.61	0.561744	0.562212	1.07413e-05	3	0.0960331	13	6.03889e-09
2	0	0	0	0	624.112	0.51673	0.517151	0.000113519	3	0.0960326	13	5.87064e-08
2	0	0	1	0	628.613	0.471716	0.472125	5.33594e-05	3	0.0960321	13	2.51923e-08
2	1	0	0	0	633.115	0.426702	0.427331	-6.36547e-05	3	0.0960313	13	-2.72016e-08
2	1	0	1	0	637.616	0.381688	0.382247	-0.000159278	3	0.0960304	13	-6.08837e-08
2	0	0	0	0	642.117	0.336674	0.337335	-0.000118078	3	0.0960295	13	-3.98318e-08
2	0	0	1	0	646.619	0.29166	0.291789	-6.48829e-05	3	0.0960285	13	-1.89321e-08
2	0	0	0	0	651.12	0.246646	0.24717	-0.000157788	3	0.0960277	13	-3.90005e-08
2	1	0	1	0	655.622	0.201632	0.202334	-0.000233526	3	0.096027	13	-4.72501e-08
2	1	0	0	0	660.123	0.156618	0.157058	-0.00019393	3	0.0960264	13	-3.04583e-08
2	1	0	1	0	664.624	0.111604	0.111696	-8.5549e-06	3	0.0960258	13	-9.5555e-10
2	0	0	0	0	669.126	0.0665905	0.0671779	2.43541e-05	3	0.0960252	13	1.63606e-09
2	0	0	1	0	673.627	0.0215766	0.021951	-1.83287e-05	3	0.0960246	13	-4.02334e-10
2	1	0	0	1	678.039	0.0225769	0.0229811	-2.13837e-05	3	0.0960245	13	-4.91422e-10
2	1	0	1	1	680.025	0.042433	0.0428617	0.00109304	3	0.0960246	13	4.68497e-08