File: Lares Oxides/2024-6-26 CoOx on FTO_1_03mg_01_PEIS_C05.mpt
EC-Lab ASCII FILE
Nb header lines : 66

Potentio Electrochemical Impedance Spectroscopy

Run on channel : 5 (SN 39658)
User :
CE vs. WE compliance from -10 V to 10 V
Electrode connection : standard
Potential control : Ewe
Ewe ctrl range : min = -2.50 V, max = 2.50 V
Safety Limits :
	Do not start on E overload
Acquisition started on : 06/26/2024 14:29:21.159
Technique started on : 06/26/2024 14:29:22.953
Loaded Setting File :  C:\Users\sfolkman\OneDrive - New Mexico State University\Folkman Group Folder\Scott\2024-6-19 FeOx on FTO_1_03mg.mps
Saved on :
	File : 2024-6-26 CoOx on FTO_1_03mg_01_PEIS_C05.mpr
	Directory : C:\Users\sfolkman\OneDrive - New Mexico State University\Folkman Group Folder\Scott\
	Host : 172.24.124.15
Device : VSP (SN 1910)
Address : USB
EC-Lab for windows v11.46 (software)
Internet server v11.40 (firmware)
Command interpretor v11.40 (firmware)
Electrode material :
Initial state :
Electrolyte :
Comments :
Current amplifier : VSPB-4A
Electrode surface area : 0.001 cm²
Characteristic mass : 0.001 g
Equivalent Weight : 0.000 g/eq.
Density : 0.000 g/cm3
Volume (V) : 0.001 cm³
Record Ece
Cycle Definition : Charge/Discharge alternance
Mode                Single sine
E (V)               0.0000
vs.                 Eoc
tE (h:m:s)          0:00:0.0000
record              0
dI                  0.000
unit dI             mA
dt (s)              0.000
fi                  200.000
unit fi             kHz
ff                  100.000
unit ff             mHz
Nd                  6
Points              per decade
spacing             Logarithmic
Va (mV)             10.0
pw                  0.10
Na                  2
corr                0
E range min (V)     -2.500
E range max (V)     2.500
I Range             Auto
Bandwidth           4
nc cycles           0
goto Ns'            0
nr cycles           0
inc. cycle          0

freq/Hz	Re(Z)/Ohm	-Im(Z)/Ohm	|Z|/Ohm	Phase(Z)/deg	time/s	<Ewe>/V	<I>/mA	Cs/µF	Cp/µF	cycle number	I Range	|Ewe|/V	|I|/A	Ns	(Q-Qo)/mA.h	<Ece>/V	|Ece|/V	Phase(Zce)/deg	|Zce|/Ohm	Re(Zce)/Ohm	-Im(Zce)/Ohm	Phase(Zwe-ce)/deg	|Zwe-ce|/Ohm	Re(Zwe-ce)/Ohm	-Im(Zwe-ce)/Ohm	Re(Y)/Ohm-1	Im(Y)/Ohm-1	|Y|/Ohm-1	Phase(Y)/deg	dq/mA.h
199998	7.5177	14.1358	16.0105	-61.995	1.79353	0.183916	-0.0145769	0.0562956	0.0438838	1	10	0.0100247	0.000626135	0	-8.33091e-07	0.0914792	0.00919703	68.3528	14.6886	5.41848	-13.6526	-2.13895	12.9452	12.9362	0.483155	0.0293275	0.0551455	0.062459	61.995	-8.33091e-07
91291.2	12.8161	9.09914	15.7177	-35.3739	2.86353	0.183926	-0.0136314	0.191598	0.0642115	1	10	0.0100521	0.000639541	0	7.90545e-06	0.0822374	0.00459549	82.7849	7.18562	0.902469	-7.12872	-8.1736	13.8593	13.7186	1.97042	0.0518772	0.0368317	0.0636225	35.3739	3.40992e-06
41669.8	14.5951	6.03446	15.7934	-22.463	3.66555	0.184012	-0.013207	0.632938	0.0924025	1	10	0.0105542	0.000668262	0	1.21484e-05	0.0834785	0.00173379	79.155	2.59448	0.488158	-2.54814	-13.0146	15.481	15.0833	3.48631	0.0585133	0.0241927	0.0633174	22.463	3.50656e-06
19020.9	16.409	5.92411	17.4456	-19.851	4.46753	0.183852	-0.0239052	1.41242	0.162869	1	10	0.0104836	0.000600927	0	1.20356e-06	0.084796	0.000821314	41.8003	1.36675	1.01887	-0.910985	-16.0479	18.1346	17.4279	5.01313	0.0539148	0.0194648	0.0573209	19.851	-6.67666e-06
8684.68	18.8021	6.56535	19.9154	-19.2482	5.26953	0.184033	-0.0142642	2.79131	0.303351	1	10	0.0102427	0.000514308	0	-3.58657e-06	0.0852543	0.000505542	12.3721	0.982956	0.960128	-0.210608	-17.8257	20.7588	19.7623	6.35474	0.0474054	0.0165531	0.0502124	19.2482	-4.42829e-06
3960.08	20.8604	8.32852	22.4615	-21.7644	6.00482	0.183972	-0.0155596	4.82557	0.663446	1	10	0.0101432	0.000451581	0	-2.44384e-06	0.0856935	0.00050806	-5.16273	1.12507	1.1205	0.101239	-20.982	23.5419	21.9809	8.42976	0.041347	0.0165078	0.0445206	21.7644	1.32297e-07
1808.26	23.1436	13.0023	26.5459	-29.3277	6.90405	0.184027	-0.0147407	6.76921	1.62399	1	10	0.0102265	0.000385239	0	-6.60554e-06	0.0856553	0.000518785	-27.939	1.34666	1.1897	0.630952	-29.2606	27.8922	24.3333	13.6332	0.0328424	0.0184512	0.0376706	29.3277	-3.79433e-06
825.264	27.5051	23.0564	35.8905	-39.9717	8.0728	0.183996	-0.00218307	8.36443	3.45191	1	11	0.0108128	0.000301271	0	-8.6997e-06	0.086801	0.000554938	-51.7779	1.84199	1.13966	1.4471	-40.5445	37.6954	28.6448	24.5035	0.0213528	0.0178991	0.0278625	39.9717	-1.59416e-06
377.051	36.8645	40.8653	55.0361	-47.9464	8.98683	0.184036	-0.00230483	10.3292	5.69482	1	11	0.010376	0.000188531	0	-8.063e-06	0.0864573	0.000616375	-62.3911	3.26936	1.51513	2.89708	-48.7492	58.2078	38.3797	43.7624	0.0121706	0.0134915	0.0181699	47.9464	-1.01826e-07
172.037	55.2267	69.6933	88.9221	-51.6058	9.8975	0.184019	-0.00219201	13.2742	8.15399	1	11	0.0101929	0.000114627	0	-7.3055e-06	0.0885386	0.000686691	-75.1733	5.99067	1.53299	5.79121	-53.0591	94.4435	56.7597	75.4845	0.0069844	0.00881397	0.0112458	51.6058	1.43245e-07
78.5176	87.787	113.859	143.772	-52.3672	10.8157	0.184018	-0.00210153	17.8027	11.1653	1	11	0.0101743	7.07671e-05	0	-7.53284e-06	0.0916319	0.000896187	-79.4456	12.6639	2.31964	12.4496	-54.4965	155.155	90.1067	126.309	0.00424699	0.0055083	0.00695545	52.3672	3.8498e-08
35.8372	139.335	180.606	228.107	-52.3504	11.9862	0.184016	-0.000554917	24.5897	15.4149	1	12	0.0102701	4.50232e-05	0	-8.18086e-06	0.0905435	0.00116826	-78.8329	25.9479	5.02535	25.4566	-54.9863	251.598	144.36	206.063	0.00267783	0.003471	0.00438391	52.3504	-1.71345e-07
16.367	214.197	283.262	355.131	-52.9042	12.8792	0.184009	-0.00063053	34.3291	21.8406	1	12	0.0101337	2.85351e-05	0	-8.09898e-06	0.0902762	0.00160092	-83.4051	56.1036	6.4434	55.7323	-56.9412	404.475	220.641	338.995	0.00169839	0.00224601	0.00281586	52.9042	-4.50068e-08
7.46893	336.23	465.534	574.259	-54.1615	13.6167	0.183988	-0.000561843	45.773	30.0814	1	12	0.0101869	1.77391e-05	0	-8.19535e-06	0.0913646	0.00197812	-84.4314	111.511	10.8208	110.985	-58.9531	672.918	347.051	576.519	0.00101958	0.00141168	0.00174138	54.1615	3.05504e-08
3.4086	523.633	751.115	915.623	-55.1181	15.0724	0.183986	-0.000413724	62.1639	41.8329	1	13	0.0100931	1.10232e-05	0	-8.46637e-06	0.0913455	0.00253623	-82.4623	230.08	30.1815	228.092	-60.5086	1124.97	553.815	979.207	0.000624588	0.000895927	0.00109215	55.1181	-3.12652e-08
1.55627	892.683	1255.29	1540.34	-54.5821	17.4071	0.183996	-0.000477635	81.4682	54.1061	1	13	0.0101678	6.60098e-06	0	-8.72728e-06	0.0927585	0.00303279	-82.5318	459.446	59.7165	455.548	-60.896	1958.07	952.399	1710.84	0.000376239	0.000529069	0.000649207	54.5821	-2.61823e-07
0.710357	1490.42	1967.02	2467.9	-52.8487	23.8965	0.184011	-0.00054897	113.903	72.3599	1	14	0.0101643	4.11858e-06	0	-9.99895e-06	0.101771	0.00392134	-77.2275	952.109	210.493	928.55	-59.5692	3358.19	1700.91	2895.57	0.000244711	0.000322964	0.000405203	52.8487	-8.18962e-07
0.324439	2525.65	2975.68	3903.02	-49.6767	34.8182	0.18401	-0.000595244	164.854	95.8234	1	14	0.0101564	2.60218e-06	0	-1.15737e-05	0.10328	0.00544993	-78.4174	2094.37	420.508	2051.72	-59.6289	5827.05	2946.15	5027.4	0.000165795	0.000195337	0.000256212	49.6767	-8.94188e-07
0.147897	4575.04	4314.15	6288.32	-43.3189	58.7051	0.184008	-0.000621492	249.44	117.405	1	14	0.0101542	1.61478e-06	0	-1.49268e-05	0.104043	0.00615723	-79.7165	3813.05	680.7	3751.8	-56.9119	9627.17	5255.74	8065.95	0.000115698	0.0001091	0.000159025	43.3189	-1.99165e-06
0.0999041	7404.41	2325.7	7761.07	-17.4373	79.7826	0.184008	-0.000640714	684.989	61.5102	1	14	0.0101542	1.30835e-06	0	-1.54113e-05	0.0997662	0.00754924	-87.2468	5770.04	277.155	5763.38	-46.4802	11155.2	7681.57	8089.07	0.000122927	3.86109e-05	0.000128848	17.4373	-4.84495e-07