File: Lares Oxides/2024-6-18 Ni33Co33Fe33Ox on FTO_1_07mg_02_CV_C05.mpt
EC-Lab ASCII FILE
Nb header lines : 59

Cyclic Voltammetry

Run on channel : 5 (SN 39658)
User :
CE vs. WE compliance from -10 V to 10 V
Electrode connection : standard
Potential control : Ewe
Ewe ctrl range : min = -2.50 V, max = 2.50 V
Safety Limits :
	Do not start on E overload
Acquisition started on : 06/18/2024 16:38:11.272
Technique started on : 06/18/2024 16:38:37.557
Loaded Setting File :  NONE
Saved on :
	File : 2024-6-18 Ni33Co33Fe33Ox on FTO_1_07mg_02_CV_C05.mpr
	Directory : C:\Users\sfolkman\OneDrive - New Mexico State University\Folkman Group Folder\Scott\
	Host : 172.24.124.15
Device : VSP (SN 1910)
Address : USB
EC-Lab for windows v11.46 (software)
Internet server v11.40 (firmware)
Command interpretor v11.40 (firmware)
Electrode material :
Initial state :
Electrolyte :
Comments :
Current amplifier : VSPB-4A
Electrode surface area : 0.001 cm²
Characteristic mass : 0.001 g
Equivalent Weight : 0.000 g/eq.
Density : 0.000 g/cm3
Volume (V) : 0.001 cm³
Cycle Definition : Charge/Discharge alternance
Ei (V)              0.000
vs.                 Eoc
dE/dt               10.000
dE/dt unit          mV/s
E1 (V)              1.000
vs.                 Ref
Step percent        50
N                   10
E range min (V)     -2.500
E range max (V)     2.500
I Range             Auto
I Range min         Unset
I Range max         Unset
I Range init        Unset
Bandwidth           4
E2 (V)              0.000
vs.                 Ref
nc cycles           2
Reverse Scan        1
Ef (V)              0.000
vs.                 Eoc

mode	ox/red	error	control changes	counter inc.	time/s	control/V	Ewe/V	<I>/mA	cycle number	(Q-Qo)/C	I Range	P/W
2	1	0	1	0	26.2848	-0.0593985	-0.0600759	0.00407428	1	0.0000000E+000	13	-2.44766e-07
2	1	0	1	0	30.641	-0.015835	-0.0154082	0.000151595	1	4.98786e-07	13	-2.33581e-09
2	1	0	0	0	35.0424	0.0281786	0.0287175	0.000139381	1	1.37352e-06	13	4.00268e-09
2	1	0	1	0	39.4438	0.0721923	0.0727647	0.0002011	1	2.88998e-06	13	1.4633e-08
2	1	0	0	0	43.8452	0.116206	0.116629	0.000802557	1	5.75673e-06	13	9.36018e-08
2	1	0	1	0	48.2465	0.160219	0.160426	0.00269253	1	1.29984e-05	13	4.31951e-07
2	1	0	1	0	52.6478	0.204233	0.2048	0.011571	1	4.44246e-05	13	2.36974e-06
2	1	0	0	0	57.0792	0.248547	0.249026	0.0157095	1	0.000111898	12	3.91208e-06
2	1	0	1	0	61.4806	0.29256	0.293261	0.017287	1	0.000189097	12	5.06959e-06
2	1	0	0	0	65.882	0.336574	0.336767	0.0173095	1	0.000268879	12	5.82928e-06
2	0	0	1	0	70.2834	0.380588	0.381255	0.0202631	1	0.000353245	12	7.72541e-06
2	0	0	1	0	74.6847	0.424601	0.425235	0.0240501	1	0.000449008	12	1.0227e-05
2	0	0	0	0	79.086	0.468615	0.468949	0.0314773	1	0.000567067	12	1.47613e-05
2	0	0	1	0	83.4874	0.512629	0.513319	0.0442945	1	0.00072923	12	2.27372e-05
2	1	0	0	0	87.8888	0.556642	0.557155	0.0646909	1	0.000966834	12	3.60428e-05
2	1	0	1	0	92.2902	0.600656	0.601162	0.10921	1	0.00133686	12	6.56526e-05
2	1	0	0	0	96.6916	0.64467	0.645355	0.332695	1	0.00218228	12	0.000214707
2	1	0	1	0	101.123	0.688983	0.68968	1.2361	1	0.00534071	11	0.000852514
2	1	0	1	0	105.524	0.732997	0.733705	2.90981	1	0.0142621	11	0.00213495
2	1	0	0	0	109.926	0.777011	0.777671	5.00229	1	0.0315901	11	0.00389013
2	1	0	1	0	114.327	0.821024	0.821326	7.2951	1	0.0586189	11	0.00599165
2	1	0	0	0	118.728	0.865038	0.86548	9.69983	1	0.0960097	11	0.008395
2	1	0	1	0	123.16	0.909352	0.909869	12.1809	1	0.144491	10	0.011083
2	1	0	1	0	127.561	0.953364	0.954209	14.6874	1	0.203631	10	0.0140148
2	1	0	0	0	131.962	0.997379	0.998039	17.2212	1	0.273862	10	0.0171874
2	1	0	1	0	136.184	0.960467	0.961181	15.0915	1	0.342647	10	0.0145057
2	1	0	0	0	140.586	0.916454	0.916899	12.6037	1	0.403554	10	0.0115563
2	1	0	1	0	144.987	0.87244	0.872528	10.1813	1	0.453649	10	0.00888344
2	1	0	0	0	149.388	0.828426	0.828944	7.83709	1	0.493243	10	0.00649651
2	1	0	1	0	153.79	0.784413	0.78497	5.60466	1	0.522753	10	0.00439949
2	1	0	1	0	158.221	0.7401	0.740516	3.54938	1	0.542929	11	0.00262837
2	1	0	0	0	162.622	0.696085	0.696548	1.7988	1	0.554536	11	0.00125295
2	1	0	1	0	167.024	0.652072	0.65267	0.587238	1	0.559516	11	0.000383273
2	1	0	0	0	171.455	0.607758	0.607733	0.0819926	1	0.560749	12	4.98296e-05
2	1	0	1	0	175.857	0.563745	0.564311	-0.0177311	1	0.560817	12	-1.00058e-05
2	0	0	0	0	180.258	0.519731	0.520169	-0.0292501	1	0.560695	12	-1.5215e-05
2	0	0	1	0	184.659	0.475718	0.476088	-0.026811	1	0.560561	12	-1.27644e-05
2	0	0	1	0	189.061	0.431704	0.432051	-0.0217574	1	0.560445	12	-9.40031e-06
2	0	0	0	0	193.462	0.38769	0.388432	-0.0169656	1	0.560348	12	-6.58999e-06
2	0	0	1	0	197.863	0.343676	0.344313	-0.0129018	1	0.560268	12	-4.44226e-06
2	0	0	0	0	202.265	0.299663	0.299946	-0.0114002	1	0.560202	12	-3.41944e-06
2	0	0	1	0	206.666	0.255649	0.256232	-0.00966041	1	0.560146	12	-2.4753e-06
2	0	0	1	0	211.067	0.211635	0.212039	-0.0104389	1	0.560097	12	-2.21346e-06
2	1	0	0	0	215.469	0.167622	0.168113	-0.0129375	1	0.560046	12	-2.17497e-06
2	1	0	1	0	219.87	0.123608	0.123934	-0.0249774	1	0.559962	12	-3.09555e-06
2	1	0	0	0	224.272	0.0795945	0.080136	-0.0163413	1	0.559886	12	-1.30953e-06
2	1	0	1	0	228.673	0.0355809	0.0357641	-0.0198966	1	0.559805	12	-7.11584e-07
2	0	0	0	1	232.985	0.00757223	0.00813252	-0.0120932	2	0.559724	13	-9.83481e-08
2	0	0	1	1	237.416	0.051886	0.0523081	-0.00402871	2	0.559693	12	-2.10734e-07
2	0	0	0	1	241.818	0.0958996	0.0964848	-0.000568556	2	0.559682	12	-5.48569e-08
2	0	0	0	1	246.219	0.139913	0.140011	0.00558331	2	0.559692	12	7.81725e-07
2	0	0	1	1	250.62	0.183927	0.184416	0.00352433	2	0.559711	12	6.49942e-07
2	0	0	0	1	255.022	0.22794	0.228149	0.00335181	2	0.559728	12	7.64712e-07
2	0	0	1	1	259.423	0.271954	0.272368	0.00430854	2	0.559746	12	1.17351e-06
2	0	0	0	1	263.824	0.315968	0.316408	0.00582245	2	0.559771	12	1.84227e-06
2	0	0	1	1	268.226	0.359981	0.360484	0.00849627	2	0.559804	12	3.06277e-06
2	0	0	1	1	272.627	0.403995	0.40438	0.0131681	2	0.559853	12	5.32492e-06
2	0	0	0	1	277.028	0.448009	0.448515	0.0206286	2	0.559926	12	9.25224e-06
2	0	0	1	1	281.43	0.492022	0.492922	0.0327789	2	0.560041	12	1.61575e-05
2	1	0	0	1	285.831	0.536036	0.536532	0.0510414	2	0.560222	12	2.73853e-05
2	1	0	1	1	290.233	0.58005	0.580442	0.0810492	2	0.560508	12	4.70443e-05
2	1	0	1	1	294.634	0.624064	0.624581	0.193832	2	0.561052	12	0.000121064
2	1	0	0	1	299.035	0.668077	0.668339	0.770125	2	0.562901	12	0.000514705
2	1	0	1	1	303.467	0.712391	0.712799	2.19058	2	0.569181	11	0.00156144
2	1	0	0	1	307.868	0.756404	0.756953	4.17462	2	0.583047	11	0.00316
2	1	0	1	1	312.269	0.800418	0.800705	6.43628	2	0.606335	11	0.00515357
2	1	0	0	1	316.671	0.844431	0.845211	8.83161	2	0.639909	11	0.00746458
2	1	0	1	1	321.102	0.888745	0.889048	11.2953	2	0.68451	10	0.010042
2	1	0	1	1	325.503	0.932759	0.933239	13.7891	2	0.739714	10	0.0128685
2	1	0	0	1	329.905	0.976773	0.977194	16.2454	2	0.805816	10	0.0158749
2	1	0	1	1	334.187	0.980474	0.980955	16.3245	2	0.87818	10	0.0160136
2	1	0	0	1	338.588	0.93646	0.936973	13.7656	2	0.944346	10	0.012898
2	1	0	1	1	342.989	0.892446	0.892674	11.3047	2	0.999477	10	0.0100914
2	1	0	0	1	347.391	0.848433	0.848967	8.93248	2	1.04395	10	0.00758338
2	1	0	1	1	351.792	0.804419	0.805045	6.65616	2	1.07819	10	0.00535851
2	1	0	1	1	356.193	0.760405	0.760767	4.51884	2	1.10271	10	0.00343778
2	1	0	0	1	360.625	0.716092	0.716461	2.59404	2	1.11837	11	0.00185853
2	1	0	1	1	365.026	0.672078	0.672185	1.07471	2	1.12624	11	0.000722404
2	1	0	0	1	369.458	0.627764	0.628263	0.224014	2	1.12881	12	0.00014074
2	0	0	1	1	373.859	0.583751	0.584531	-0.00605343	2	1.12914	12	-3.53841e-06
2	0	0	0	1	378.26	0.539737	0.5401	-0.0359064	2	1.12901	12	-1.93931e-05
2	0	0	0	1	382.662	0.495723	0.495914	-0.0352254	2	1.12883	12	-1.74688e-05
2	0	0	1	1	387.063	0.45171	0.452201	-0.0287533	2	1.12868	12	-1.30023e-05
2	0	0	0	1	391.464	0.407696	0.407934	-0.0222137	2	1.12856	12	-9.06174e-06
2	0	0	1	1	395.866	0.363683	0.364572	-0.0183685	2	1.12846	12	-6.69665e-06
2	0	0	0	1	400.267	0.319669	0.320404	-0.0152944	2	1.12838	12	-4.90039e-06
2	0	0	1	1	404.668	0.275656	0.276175	-0.013115	2	1.12832	12	-3.62203e-06
2	1	0	1	1	409.07	0.231642	0.232127	-0.0114572	2	1.12827	12	-2.65952e-06
2	1	0	0	1	413.471	0.187628	0.188018	-0.0109317	2	1.12822	12	-2.05535e-06
2	1	0	1	1	417.873	0.143614	0.143951	-0.0138645	2	1.12816	12	-1.99582e-06
2	1	0	0	1	422.274	0.0996007	0.0996102	-0.0121646	2	1.1281	12	-1.21172e-06
2	1	0	1	1	426.675	0.0555871	0.0558123	-0.0109995	2	1.12805	12	-6.13906e-07
2	1	0	1	1	431.107	0.0112743	0.0117984	-0.0115284	2	1.128	13	-1.36017e-07
2	1	0	1	0	435.389	0.0315797	0.0323289	-0.00469314	3	1.12796	13	-1.51724e-07
2	1	0	1	0	439.82	0.0758936	0.0764611	-0.00311956	3	1.12795	12	-2.38525e-07
2	1	0	0	0	444.221	0.119907	0.120296	-0.00135598	3	1.12795	12	-1.63119e-07
2	1	0	1	0	448.623	0.163921	0.164543	-0.00101276	3	1.12795	12	-1.66643e-07
2	1	0	0	0	453.024	0.207934	0.208434	-0.00062189	3	1.12796	12	-1.29623e-07
2	1	0	1	0	457.425	0.251948	0.252398	0.000102053	3	1.12797	12	2.5758e-08
2	1	0	0	0	461.827	0.295962	0.296163	0.000973117	3	1.12798	12	2.88202e-07
2	1	0	1	0	466.228	0.339976	0.340463	0.00271057	3	1.128	12	9.22848e-07
2	1	0	1	0	470.629	0.383989	0.384327	0.00627071	3	1.12803	12	2.41e-06
2	1	0	0	0	475.031	0.428003	0.428302	0.0105746	3	1.12807	12	4.52911e-06
2	1	0	1	0	479.432	0.472016	0.472293	0.0185109	3	1.12814	12	8.74258e-06
2	1	0	0	0	483.834	0.51603	0.51674	0.0323151	3	1.12825	12	1.66985e-05
2	1	0	1	0	488.235	0.560043	0.560226	0.05187	3	1.12844	12	2.90589e-05
2	1	0	1	0	492.636	0.604057	0.604632	0.0953093	3	1.12874	12	5.7627e-05
2	1	0	0	0	497.038	0.648071	0.648176	0.320714	3	1.12951	12	0.000207879
2	1	0	1	0	501.469	0.692384	0.692813	1.2352	3	1.13263	11	0.000855765
2	1	0	0	0	505.87	0.736398	0.736821	2.91642	3	1.14156	11	0.00214888
2	1	0	1	0	510.272	0.780412	0.780567	4.9999	3	1.1589	11	0.00390276
2	1	0	1	0	514.673	0.824424	0.824842	7.20939	3	1.18576	11	0.0059466
2	1	0	0	0	519.074	0.868439	0.868753	9.50214	3	1.22253	11	0.00825501
2	1	0	1	0	523.506	0.912753	0.913206	11.7707	3	1.26971	10	0.0107491
2	1	0	0	0	527.907	0.956766	0.957291	13.9511	3	1.32634	10	0.0133552
2	1	0	1	0	532.234	1.00003	1.0005	16.0853	3	1.39119	10	0.0160933
2	1	0	0	0	536.59	0.956466	0.956976	13.3998	3	1.45501	10	0.0128232
2	1	0	1	0	540.992	0.912453	0.913002	10.7694	3	1.50819	10	0.00983251
2	1	0	0	0	545.393	0.868439	0.869079	8.26257	3	1.55001	10	0.00718082
2	1	0	1	0	549.794	0.824425	0.824785	6.07436	3	1.58141	10	0.00501004
2	1	0	1	0	554.226	0.780112	0.780662	3.93661	3	1.60353	11	0.00307316
2	1	0	0	0	558.627	0.736098	0.736523	2.04061	3	1.61653	11	0.00150296
2	1	0	1	0	563.029	0.692084	0.692585	0.664645	3	1.62222	11	0.000460324
2	1	0	0	0	567.46	0.647771	0.648167	0.0945068	3	1.6236	12	6.12562e-05
2	0	0	1	0	571.861	0.603757	0.6044	0.00611521	3	1.62375	12	3.69603e-06
2	1	0	1	0	576.263	0.559743	0.559954	-0.00289396	3	1.62374	12	-1.62048e-06
2	1	0	0	0	580.664	0.51573	0.516077	-0.00285368	3	1.62373	12	-1.47272e-06
2	1	0	1	0	585.065	0.471716	0.472139	-0.00281288	3	1.62372	12	-1.32807e-06
2	1	0	0	0	589.467	0.427702	0.428288	-0.00270693	3	1.6237	12	-1.15934e-06
2	1	0	1	0	593.868	0.383689	0.384067	-0.00200037	3	1.62369	12	-7.68276e-07
2	1	0	0	0	598.27	0.339675	0.340135	-0.00194901	3	1.62368	12	-6.62927e-07
2	1	0	1	0	602.671	0.295661	0.295857	-0.00195783	3	1.62367	12	-5.79237e-07
2	1	0	1	0	607.072	0.251648	0.252275	-0.00172404	3	1.62367	12	-4.34933e-07
2	1	0	0	0	611.474	0.207634	0.208106	-0.00192176	3	1.62366	12	-3.99929e-07
2	1	0	1	0	615.875	0.163621	0.164207	-0.00302233	3	1.62365	12	-4.9629e-07
2	1	0	0	0	620.276	0.119607	0.119824	-0.00563898	3	1.62363	12	-6.75685e-07
2	1	0	1	0	624.678	0.0755933	0.0755348	-0.00262596	3	1.62362	12	-1.98351e-07
2	1	0	1	0	629.079	0.0315797	0.0315396	-0.00280348	3	1.62361	12	-8.84206e-08
2	0	0	0	1	633.391	-0.0115337	-0.0110149	-0.00281158	3	1.62359	13	3.09694e-08
2	0	0	1	1	637.792	-0.0555473	-0.0547588	-0.00306065	3	1.62358	13	1.67597e-07
2	0	0	0	1	638.188	-0.0595986	-0.059744	-0.000908289	3	1.62358	13	5.42648e-08