File: Lares Oxides/2024-6-21 Co80Fe20Ox on FTO_1_00mg_CP1_C02.mpt
EC-Lab ASCII FILE
Nb header lines : 54

Chronopotentiometry

Run on channel : 2 (SN 39659)
User :
CE vs. WE compliance from -18 V to 2 V
Electrode connection : standard
Potential control : Ewe
Ewe ctrl range : min = 0.00 V, max = 5.00 V
Safety Limits :
	Do not start on E overload
Acquisition started on : 06/21/2024 10:05:46.800
Technique started on : 06/21/2024 10:05:47.800
Loaded Setting File :  NONE
Saved on :
	File : 2024-6-21 Co80Fe20Ox on FTO_1_00mg_CP1_C02.mpr
	Directory : C:\Users\sfolkman\OneDrive - New Mexico State University\Folkman Group Folder\Scott\
	Host : 172.24.124.15
Device : VSP (SN 1910)
Address : USB
EC-Lab for windows v11.46 (software)
Internet server v11.40 (firmware)
Command interpretor v11.40 (firmware)
Electrode material :
Initial state :
Electrolyte :
Comments :
Electrode surface area : 0.001 cm²
Characteristic mass : 0.001 g
Equivalent Weight : 0.000 g/eq.
Density : 0.000 g/cm3
Volume (V) : 0.001 cm³
Record Ece
Cycle Definition : Charge/Discharge alternance
Is                  10.000
unit Is             mA
vs.                 <None>
ts (h:m:s)          48:00:0.0000
EM (V)              5.000
dQM                 480.000
unit dQM            mA.h
record              <Ewe>
dEs (mV)            0.00
dts (s)             1.0000
E range min (V)     0.000
E range max (V)     5.000
I Range             10 mA
Bandwidth           5
goto Ns'            0
nc cycles           0

mode	ox/red	error	control changes	Ns changes	counter inc.	Ns	time/s	control/mA	<Ewe>/V	I/mA	dQ/C	(Q-Qo)/C	half cycle	Q charge/discharge/mA.h	I Range	<Ece>/V	Energy charge/W.h	Energy discharge/W.h	Capacitance charge/µF	Capacitance discharge/µF	Q discharge/mA.h	Q charge/mA.h	Capacity/mA.h	Efficiency/%	cycle number	P/W	Ewe-Ece/V
1	1	0	1	0	0	0	1	10	1.00716	10.0047	0.00950185	0.00950185	0	0.0026394	11	-0.988845	2.65831e-06	0.000000000000000E+000	0.000000000000000E+000	0.000000000000000E+000	0.000000000000000E+000	0.0026394	0.0026394	0.0000000E+000	0.000000000000000E+000	0.0100764	1.99601
1	1	0	1	0	0	0	138	10	1.07159	10.0045	1.38003	1.38003	0	0.383342	11	-1.06468	0.000402121	0.000000000000000E+000	2.14204e+07	0.000000000000000E+000	0.000000000000000E+000	0.383342	0.383342	0.0000000E+000	0.000000000000000E+000	0.0107208	2.13627
1	1	0	1	0	0	0	275	10	1.10005	10.0036	2.75055	2.75055	0	0.764041	11	-1.06455	0.000816212	0.000000000000000E+000	2.96124e+07	0.000000000000000E+000	0.000000000000000E+000	0.764041	0.764041	0.0000000E+000	0.000000000000000E+000	0.0110044	2.1646
1	1	0	1	0	0	0	412	10	1.11897	10.004	4.12106	4.12106	0	1.14474	11	-1.06577	0.00123885	0.000000000000000E+000	3.68578e+07	0.000000000000000E+000	0.000000000000000E+000	1.14474	1.14474	0.0000000E+000	0.000000000000000E+000	0.0111942	2.18475
1	1	0	1	0	0	0	549	10	1.13384	10.0041	5.49158	5.49158	0	1.52544	11	-1.06836	0.00166779	0.000000000000000E+000	4.33506e+07	0.000000000000000E+000	0.000000000000000E+000	1.52544	1.52544	0.0000000E+000	0.000000000000000E+000	0.0113431	2.2022
1	1	0	1	0	0	0	686	10	1.14919	10.0036	6.86209	6.86209	0	1.90613	11	-1.07226	0.00210264	0.000000000000000E+000	4.8317e+07	0.000000000000000E+000	0.000000000000000E+000	1.90613	1.90613	0.0000000E+000	0.000000000000000E+000	0.011496	2.22145
1	1	0	1	0	0	0	823	10	1.16117	10.0034	8.23259	8.23259	0	2.28683	11	-1.07489	0.00254225	0.000000000000000E+000	5.34551e+07	0.000000000000000E+000	0.000000000000000E+000	2.28683	2.28683	0.0000000E+000	0.000000000000000E+000	0.0116157	2.23606
1	1	0	1	0	0	0	960	10	1.17036	10.0033	9.6031	9.6031	0	2.66753	11	-1.07783	0.00298607	0.000000000000000E+000	5.88425e+07	0.000000000000000E+000	0.000000000000000E+000	2.66753	2.66753	0.0000000E+000	0.000000000000000E+000	0.0117075	2.2482
1	1	0	1	0	0	0	1097	10	1.17843	10.0038	10.9736	10.9736	0	3.04822	11	-1.07461	0.00343331	0.000000000000000E+000	6.40744e+07	0.000000000000000E+000	0.000000000000000E+000	3.04822	3.04822	0.0000000E+000	0.000000000000000E+000	0.0117887	2.25304
1	1	0	1	0	0	0	1234	10	1.18694	10.0038	12.3441	12.3441	0	3.42892	11	-1.07628	0.00388359	0.000000000000000E+000	6.86625e+07	0.000000000000000E+000	0.000000000000000E+000	3.42892	3.42892	0.0000000E+000	0.000000000000000E+000	0.011874	2.26322
1	1	0	1	0	0	0	1371	10	1.19213	10.0036	13.7146	13.7146	0	3.80962	11	-1.07762	0.00433682	0.000000000000000E+000	7.41486e+07	0.000000000000000E+000	0.000000000000000E+000	3.80962	3.80962	0.0000000E+000	0.000000000000000E+000	0.0119256	2.26974
1	1	0	1	0	0	0	1508	10	1.20284	10.0036	15.0851	15.0851	0	4.19031	11	-1.08008	0.00479273	0.000000000000000E+000	7.70918e+07	0.000000000000000E+000	0.000000000000000E+000	4.19031	4.19031	0.0000000E+000	0.000000000000000E+000	0.0120327	2.28292
1	1	0	1	0	0	0	1645	10	1.21498	10.0036	16.4556	16.4556	0	4.57101	11	-1.0803	0.00525316	0.000000000000000E+000	7.91831e+07	0.000000000000000E+000	0.000000000000000E+000	4.57101	4.57101	0.0000000E+000	0.000000000000000E+000	0.0121542	2.29528
1	1	0	1	0	0	0	1782	10	1.22496	10.004	17.8262	17.8262	0	4.95171	11	-1.08364	0.00571747	0.000000000000000E+000	8.18462e+07	0.000000000000000E+000	0.000000000000000E+000	4.95171	4.95171	0.0000000E+000	0.000000000000000E+000	0.0122546	2.30861
1	1	0	1	0	0	0	1919	10	1.23393	10.0044	19.1967	19.1967	0	5.33241	11	-1.08681	0.00618564	0.000000000000000E+000	8.46523e+07	0.000000000000000E+000	0.000000000000000E+000	5.33241	5.33241	0.0000000E+000	0.000000000000000E+000	0.0123448	2.32074
1	1	0	1	0	0	0	2056	10	1.24474	10.0043	20.5672	20.5672	0	5.71311	11	-1.08784	0.00665748	0.000000000000000E+000	8.65707e+07	0.000000000000000E+000	0.000000000000000E+000	5.71311	5.71311	0.0000000E+000	0.000000000000000E+000	0.0124528	2.33258
1	1	0	1	0	0	0	2193	10	1.25725	10.0046	21.9377	21.9377	0	6.09381	11	-1.09107	0.00713358	0.000000000000000E+000	8.77217e+07	0.000000000000000E+000	0.000000000000000E+000	6.09381	6.09381	0.0000000E+000	0.000000000000000E+000	0.0125782	2.34832
1	1	0	1	0	0	0	2330	10	1.2691	10.0038	23.3082	23.3082	0	6.4745	11	-1.09308	0.00761442	0.000000000000000E+000	8.89841e+07	0.000000000000000E+000	0.000000000000000E+000	6.4745	6.4745	0.0000000E+000	0.000000000000000E+000	0.0126958	2.36218
1	1	0	1	0	0	0	2467	10	1.27921	10.0041	24.6787	24.6787	0	6.8552	11	-1.09399	0.00810006	0.000000000000000E+000	9.07141e+07	0.000000000000000E+000	0.000000000000000E+000	6.8552	6.8552	0.0000000E+000	0.000000000000000E+000	0.0127974	2.37321
1	1	0	1	0	0	0	2604	10	1.29361	10.0036	26.0492	26.0492	0	7.2359	11	-1.09505	0.00859006	0.000000000000000E+000	9.09408e+07	0.000000000000000E+000	0.000000000000000E+000	7.2359	7.2359	0.0000000E+000	0.000000000000000E+000	0.0129408	2.38865
1	1	0	1	0	0	0	2741	10	1.30346	10.0049	27.4197	27.4197	0	7.6166	11	-1.09798	0.00908455	0.000000000000000E+000	9.25431e+07	0.000000000000000E+000	0.000000000000000E+000	7.6166	7.6166	0.0000000E+000	0.000000000000000E+000	0.013041	2.40143
1	1	0	1	0	0	0	2878	10	1.31729	10.004	28.7903	28.7903	0	7.99729	11	-1.09959	0.00958356	0.000000000000000E+000	9.28341e+07	0.000000000000000E+000	0.000000000000000E+000	7.99729	7.99729	0.0000000E+000	0.000000000000000E+000	0.0131781	2.41688
1	1	0	1	0	0	0	3015	10	1.33456	10.0044	30.1608	30.1608	0	8.37799	11	-1.10169	0.0100869	0.000000000000000E+000	9.21244e+07	0.000000000000000E+000	0.000000000000000E+000	8.37799	8.37799	0.0000000E+000	0.000000000000000E+000	0.0133514	2.43625
1	1	0	1	0	0	0	3152	10	1.34571	10.0036	31.5313	31.5313	0	8.75869	11	-1.10377	0.0105965	0.000000000000000E+000	9.31385e+07	0.000000000000000E+000	0.000000000000000E+000	8.75869	8.75869	0.0000000E+000	0.000000000000000E+000	0.013462	2.44948
1	1	0	1	0	0	0	3289	10	1.355	10.0034	32.9018	32.9018	0	9.13938	11	-1.10507	0.0111095	0.000000000000000E+000	9.45907e+07	0.000000000000000E+000	0.000000000000000E+000	9.13938	9.13938	0.0000000E+000	0.000000000000000E+000	0.0135546	2.46006
1	1	0	1	0	0	0	3426	10	1.36215	10.0042	34.2723	34.2723	0	9.52008	11	-1.10598	0.0116269	0.000000000000000E+000	9.65452e+07	0.000000000000000E+000	0.000000000000000E+000	9.52008	9.52008	0.0000000E+000	0.000000000000000E+000	0.0136272	2.46813
1	1	0	1	0	0	0	3563	10	1.35539	10.0031	35.6428	35.6428	0	9.90078	11	-1.10705	0.0121439	0.000000000000000E+000	1.02354e+08	0.000000000000000E+000	0.000000000000000E+000	9.90078	9.90078	0.0000000E+000	0.000000000000000E+000	0.0135582	2.46245
1	1	0	1	0	0	0	3700	10	1.34404	10.0042	37.0133	37.0133	0	10.2815	11	-1.11067	0.0126606	0.000000000000000E+000	1.09871e+08	0.000000000000000E+000	0.000000000000000E+000	10.2815	10.2815	0.0000000E+000	0.000000000000000E+000	0.0134461	2.45472
1	1	0	1	0	0	0	3837	10	1.3496	10.004	38.3838	38.3838	0	10.6622	11	-1.1126	0.0131755	0.000000000000000E+000	1.1209e+08	0.000000000000000E+000	0.000000000000000E+000	10.6622	10.6622	0.0000000E+000	0.000000000000000E+000	0.0135014	2.4622
1	1	0	1	0	0	0	3974	10	1.34805	10.0044	39.7543	39.7543	0	11.0429	11	-1.11488	0.0136862	0.000000000000000E+000	1.1662e+08	0.000000000000000E+000	0.000000000000000E+000	11.0429	11.0429	0.0000000E+000	0.000000000000000E+000	0.0134864	2.46293
1	1	0	1	0	0	0	4111	10	1.32628	10.0047	41.1248	41.1248	0	11.4236	11	-1.11553	0.0141952	0.000000000000000E+000	1.28872e+08	0.000000000000000E+000	0.000000000000000E+000	11.4236	11.4236	0.0000000E+000	0.000000000000000E+000	0.013269	2.44181
1	1	0	1	0	0	0	4248	10	1.31682	10.0039	42.4953	42.4953	0	11.8043	11	-1.11749	0.0147045	0.000000000000000E+000	1.37234e+08	0.000000000000000E+000	0.000000000000000E+000	11.8043	11.8043	0.0000000E+000	0.000000000000000E+000	0.0131733	2.43431
1	1	0	1	0	0	0	4385	10	1.34632	10.0039	43.8658	43.8658	0	12.185	11	-1.11951	0.0152146	0.000000000000000E+000	1.29339e+08	0.000000000000000E+000	0.000000000000000E+000	12.185	12.185	0.0000000E+000	0.000000000000000E+000	0.0134684	2.46583
1	1	0	1	0	0	0	4522	10	1.33061	10.0028	45.2364	45.2364	0	12.5657	11	-1.12113	0.0157223	0.000000000000000E+000	1.39859e+08	0.000000000000000E+000	0.000000000000000E+000	12.5657	12.5657	0.0000000E+000	0.000000000000000E+000	0.0133098	2.45173
1	1	0	1	0	0	0	4659	10	1.33825	10.0027	46.6069	46.6069	0	12.9464	11	-1.12302	0.016234	0.000000000000000E+000	1.4077e+08	0.000000000000000E+000	0.000000000000000E+000	12.9464	12.9464	0.0000000E+000	0.000000000000000E+000	0.0133861	2.46127
1	1	0	1	0	0	0	4796	10	1.33695	10.0034	47.9774	47.9774	0	13.327	11	-1.12301	0.0167463	0.000000000000000E+000	1.45481e+08	0.000000000000000E+000	0.000000000000000E+000	13.327	13.327	0.0000000E+000	0.000000000000000E+000	0.013374	2.45996
1	1	0	1	0	0	0	4933	10	1.35935	10.0036	49.3479	49.3479	0	13.7077	11	-1.12561	0.0172549	0.000000000000000E+000	1.40118e+08	0.000000000000000E+000	0.000000000000000E+000	13.7077	13.7077	0.0000000E+000	0.000000000000000E+000	0.0135984	2.48496
1	1	0	1	0	0	0	5070	10	1.35847	10.0033	50.7184	50.7184	0	14.0884	11	-1.1261	0.0177663	0.000000000000000E+000	1.44372e+08	0.000000000000000E+000	0.000000000000000E+000	14.0884	14.0884	0.0000000E+000	0.000000000000000E+000	0.0135891	2.48457
1	1	0	1	0	0	0	5207	10	1.33573	10.0031	52.0889	52.0889	0	14.4691	11	-1.1273	0.0182765	0.000000000000000E+000	1.58533e+08	0.000000000000000E+000	0.000000000000000E+000	14.4691	14.4691	0.0000000E+000	0.000000000000000E+000	0.0133614	2.46303
1	1	0	1	0	0	0	5344	10	1.32687	10.0034	53.4594	53.4594	0	14.8498	11	-1.12829	0.0187849	0.000000000000000E+000	1.67215e+08	0.000000000000000E+000	0.000000000000000E+000	14.8498	14.8498	0.0000000E+000	0.000000000000000E+000	0.0132733	2.45516
1	1	0	1	0	0	0	5481	10	1.32363	10.0041	54.8299	54.8299	0	15.2305	11	-1.13058	0.0192939	0.000000000000000E+000	1.73259e+08	0.000000000000000E+000	0.000000000000000E+000	15.2305	15.2305	0.0000000E+000	0.000000000000000E+000	0.0132417	2.45421
1	1	0	1	0	0	0	5618	10	1.33699	10.0041	56.2004	56.2004	0	15.6112	11	-1.13026	0.0198025	0.000000000000000E+000	1.70393e+08	0.000000000000000E+000	0.000000000000000E+000	15.6112	15.6112	0.0000000E+000	0.000000000000000E+000	0.0133755	2.46726
1	1	0	1	0	0	0	5738.8	10	1.33875	10.0039	57.4089	57.4089	0	15.9469	11	-1.13943	0.0202507	0.000000000000000E+000	1.73135e+08	0.000000000000000E+000	0.000000000000000E+000	15.9469	15.9469	0.0000000E+000	0.000000000000000E+000	0.0133927	2.47818