File: Lares Oxides/2024-6-19 FeOx on FTO_1_03mg_01_PEIS_C05.mpt
EC-Lab ASCII FILE
Nb header lines : 65

Potentio Electrochemical Impedance Spectroscopy

Run on channel : 5 (SN 39658)
User :
CE vs. WE compliance from -10 V to 10 V
Electrode connection : standard
Potential control : Ewe
Ewe ctrl range : min = -2.50 V, max = 2.50 V
Safety Limits :
	Do not start on E overload
Acquisition started on : 06/19/2024 15:35:49.269
Technique started on : 06/19/2024 15:35:50.807
Loaded Setting File :  NONE
Saved on :
	File : 2024-6-19 FeOx on FTO_1_03mg_01_PEIS_C05.mpr
	Directory : C:\Users\sfolkman\OneDrive - New Mexico State University\Folkman Group Folder\Scott\
	Host : 172.24.124.15
Device : VSP (SN 1910)
Address : USB
EC-Lab for windows v11.46 (software)
Internet server v11.40 (firmware)
Command interpretor v11.40 (firmware)
Electrode material :
Initial state :
Electrolyte :
Comments :
Current amplifier : VSPB-4A
Electrode surface area : 0.001 cm²
Characteristic mass : 0.001 g
Equivalent Weight : 0.000 g/eq.
Density : 0.000 g/cm3
Volume (V) : 0.001 cm³
Cycle Definition : Charge/Discharge alternance
Mode                Single sine
E (V)               0.0000
vs.                 Eoc
tE (h:m:s)          0:00:0.0000
record              0
dI                  0.000
unit dI             mA
dt (s)              0.000
fi                  200.000
unit fi             kHz
ff                  100.000
unit ff             mHz
Nd                  6
Points              per decade
spacing             Logarithmic
Va (mV)             10.0
pw                  0.10
Na                  2
corr                0
E range min (V)     -2.500
E range max (V)     2.500
I Range             Auto
Bandwidth           4
nc cycles           0
goto Ns'            0
nr cycles           0
inc. cycle          0

freq/Hz	Re(Z)/Ohm	-Im(Z)/Ohm	|Z|/Ohm	Phase(Z)/deg	time/s	<Ewe>/V	<I>/mA	Cs/µF	Cp/µF	cycle number	I Range	|Ewe|/V	|I|/A	Ns	(Q-Qo)/mA.h	Re(Y)/Ohm-1	Im(Y)/Ohm-1	|Y|/Ohm-1	Phase(Y)/deg	Re(C)/nF	Im(C)/nF	|C|/nF	Phase(C)/deg	Re(M)	Im(M)	|M|	Phase(M)/deg	Re(Permittivity)	Im(Permittivity)	|Permittivity|	Phase(Permittivity)/deg	Re(Resistivity)/Ohm.cm	Im(Resistivity)/Ohm.cm	|Resistivity|/Ohm.cm	Phase(Resistivity)/deg	Re(Conductivity)/mS/cm	Im(Conductivity)/mS/cm	|Conductivity|/mS/cm	Phase(Conductivity)/deg	Tan(Delta)	Loss Angle(Delta)/deg	dq/mA.h
199998	9.28652	15.816	18.3408	-59.5802	1.53848	0.0427792	-0.0132126	0.0503151	0.0374157	1	10	0.0093661	0.00051067	0	-6.1234e-06	0.0276068	0.0470175	0.0545233	59.5802	37.4157	21.969	43.3886	-30.4198	0.0000000E+000	0.0000000E+000	0.0000000E+000	30.4198	0.0000000E+000	0.0000000E+000	0.0000000E+000	-30.4198	0.0000000E+000	0.0000000E+000	0.0000000E+000	-59.5802	0.0000000E+000	0.0000000E+000	0.0000000E+000	59.5802	0.58716	59.5802	-6.1234e-06
91291.2	17.6539	10.3332	20.4557	-30.3413	2.72848	0.0428756	-0.0124774	0.168717	0.0430524	1	10	0.0101434	0.000495873	0	-1.57361e-05	0.0421904	0.0246948	0.0488862	30.3413	43.0524	73.5537	85.2271	-59.6587	0.0000000E+000	0.0000000E+000	0.0000000E+000	59.6587	0.0000000E+000	0.0000000E+000	0.0000000E+000	-59.6587	0.0000000E+000	0.0000000E+000	0.0000000E+000	-30.3413	0.0000000E+000	0.0000000E+000	0.0000000E+000	30.3413	1.70847	30.3413	-4.22966e-06
41669.8	18.3599	3.60752	18.7109	-11.1164	3.62048	0.0428717	-0.0128646	1.05874	0.0393567	1	10	0.0104986	0.000561096	0	-9.86023e-06	0.052442	0.0103043	0.0534447	11.1164	39.3567	200.299	204.129	-78.8836	0.0000000E+000	0.0000000E+000	0.0000000E+000	78.8836	0.0000000E+000	0.0000000E+000	0.0000000E+000	-78.8836	0.0000000E+000	0.0000000E+000	0.0000000E+000	-11.1164	0.0000000E+000	0.0000000E+000	0.0000000E+000	11.1164	5.08932	11.1164	3.25875e-06
19020.9	17.7011	2.59319	17.8901	-8.33444	4.5125	0.0428755	-0.0134192	3.22667	0.0677949	1	10	0.0103372	0.000577818	0	-1.43043e-05	0.0553066	0.00810231	0.0558969	8.33444	67.7949	462.77	467.709	-81.6656	0.0000000E+000	0.0000000E+000	0.0000000E+000	81.6656	0.0000000E+000	0.0000000E+000	0.0000000E+000	-81.6656	0.0000000E+000	0.0000000E+000	0.0000000E+000	-8.33444	0.0000000E+000	0.0000000E+000	0.0000000E+000	8.33444	6.82602	8.33444	-4.01347e-07
8683.37	17.6903	3.33544	18.002	-10.6776	5.432	0.0429057	-0.0120698	5.49513	0.188645	1	10	0.0101584	0.000564294	0	-2.02922e-05	0.0545877	0.0102923	0.0555495	10.6776	188.645	1000.52	1018.15	-79.3224	0.0000000E+000	0.0000000E+000	0.0000000E+000	79.3224	0.0000000E+000	0.0000000E+000	0.0000000E+000	-79.3224	0.0000000E+000	0.0000000E+000	0.0000000E+000	-10.6776	0.0000000E+000	0.0000000E+000	0.0000000E+000	10.6776	5.30372	10.6776	-1.4969e-06
3961.2	17.847	6.00901	18.8314	-18.6082	6.54495	0.0428982	-0.0149547	6.68637	0.680816	1	10	0.0105782	0.000561731	0	-2.56267e-05	0.0503266	0.0169448	0.0531027	18.6082	680.816	2022.05	2133.59	-71.3918	0.0000000E+000	0.0000000E+000	0.0000000E+000	71.3918	0.0000000E+000	0.0000000E+000	0.0000000E+000	-71.3918	0.0000000E+000	0.0000000E+000	0.0000000E+000	-18.6082	0.0000000E+000	0.0000000E+000	0.0000000E+000	18.6082	2.97004	18.6082	-4.54817e-06
1808.26	17.9639	12.4198	21.8392	-34.6591	7.49295	0.0429032	-0.014616	7.08669	2.29191	1	10	0.0108542	0.000497003	0	-3.4267e-05	0.0376639	0.0260399	0.0457891	34.6591	2291.91	3315	4030.14	-55.3409	0.0000000E+000	0.0000000E+000	0.0000000E+000	55.3409	0.0000000E+000	0.0000000E+000	0.0000000E+000	-55.3409	0.0000000E+000	0.0000000E+000	0.0000000E+000	-34.6591	0.0000000E+000	0.0000000E+000	0.0000000E+000	34.6591	1.44639	34.6591	-3.94826e-06
825.264	18.266	26.7989	32.4319	-55.7218	8.93567	0.0428924	-0.00175505	7.19632	4.9136	1	11	0.0102175	0.000315046	0	-3.65042e-05	0.017366	0.0254784	0.0308338	55.7218	4913.6	3349.09	5946.41	-34.2782	0.0000000E+000	0.0000000E+000	0.0000000E+000	34.2782	0.0000000E+000	0.0000000E+000	0.0000000E+000	-34.2782	0.0000000E+000	0.0000000E+000	0.0000000E+000	-55.7218	0.0000000E+000	0.0000000E+000	0.0000000E+000	55.7218	0.681596	55.7218	2.06844e-06
377.051	19.0838	58.1635	61.2142	-71.835	9.88265	0.0429022	-0.00183549	7.25721	6.55187	1	11	0.00953176	0.000155711	0	-3.80949e-05	0.00509286	0.0155219	0.0163361	71.835	6551.87	2149.72	6895.53	-18.165	0.0000000E+000	0.0000000E+000	0.0000000E+000	18.165	0.0000000E+000	0.0000000E+000	0.0000000E+000	-18.165	0.0000000E+000	0.0000000E+000	0.0000000E+000	-71.835	0.0000000E+000	0.0000000E+000	0.0000000E+000	71.835	0.328107	71.835	-1.25233e-06
172.037	21.9295	125.662	127.561	-80.1009	10.8264	0.0428842	-0.00186379	7.36201	7.14442	1	11	0.00931852	7.30517e-05	0	-3.75034e-05	0.00134771	0.00772269	0.00783941	80.1009	7144.42	1246.79	7252.4	-9.89915	0.0000000E+000	0.0000000E+000	0.0000000E+000	9.89915	0.0000000E+000	0.0000000E+000	0.0000000E+000	-9.89915	0.0000000E+000	0.0000000E+000	0.0000000E+000	-80.1009	0.0000000E+000	0.0000000E+000	0.0000000E+000	80.1009	0.174513	80.1009	2.55475e-07
78.5176	30.1412	269.018	270.701	-83.6072	12.0445	0.0428945	-0.00026336	7.5348	7.44139	1	12	0.00937818	3.4644e-05	0	-3.75114e-05	0.00041132	0.00367114	0.00369411	83.6072	7441.39	833.744	7487.95	-6.39285	0.0000000E+000	0.0000000E+000	0.0000000E+000	6.39285	0.0000000E+000	0.0000000E+000	0.0000000E+000	-6.39285	0.0000000E+000	0.0000000E+000	0.0000000E+000	-83.6072	0.0000000E+000	0.0000000E+000	0.0000000E+000	83.6072	0.112041	83.6072	-3.06219e-08
35.8372	41.488	576.169	577.661	-85.8814	12.9971	0.0428735	-0.000234452	7.70791	7.66815	1	12	0.00928519	1.60738e-05	0	-3.76086e-05	0.00012433	0.00172665	0.00173112	85.8814	7668.15	552.158	7688	-4.11857	0.0000000E+000	0.0000000E+000	0.0000000E+000	4.11857	0.0000000E+000	0.0000000E+000	0.0000000E+000	-4.11857	0.0000000E+000	0.0000000E+000	0.0000000E+000	-85.8814	0.0000000E+000	0.0000000E+000	0.0000000E+000	85.8814	0.0720066	85.8814	-2.34478e-08
16.367	53.0362	1228.16	1229.3	-87.5273	13.923	0.0428726	-0.000211333	7.91767	7.90293	1	12	0.00928002	7.54901e-06	0	-3.76846e-05	3.50957e-05	0.000812711	0.000813469	87.5273	7902.93	341.276	7910.3	-2.47269	0.0000000E+000	0.0000000E+000	0.0000000E+000	2.47269	0.0000000E+000	0.0000000E+000	0.0000000E+000	-2.47269	0.0000000E+000	0.0000000E+000	0.0000000E+000	-87.5273	0.0000000E+000	0.0000000E+000	0.0000000E+000	87.5273	0.0431835	87.5273	8.71504e-09
7.46893	75.8936	2659.77	2660.85	-88.3656	14.9416	0.0428758	-2.49008e-05	8.01156	8.00505	1	13	0.00927864	3.48709e-06	0	-3.77376e-05	1.07192e-05	0.000375666	0.000375819	88.3656	8005.05	228.415	8008.3	-1.63443	0.0000000E+000	0.0000000E+000	0.0000000E+000	1.63443	0.0000000E+000	0.0000000E+000	0.0000000E+000	-1.63443	0.0000000E+000	0.0000000E+000	0.0000000E+000	-88.3656	0.0000000E+000	0.0000000E+000	0.0000000E+000	88.3656	0.0285339	88.3656	-8.87464e-09
3.4086	198.187	5752.63	5756.04	-88.0269	16.0852	0.0429002	6.78843e-07	8.11668	8.10706	1	13	0.0092703	1.61053e-06	0	-3.77069e-05	5.98173e-06	0.000173627	0.000173731	88.0269	8107.06	279.3	8111.87	-1.97314	0.0000000E+000	0.0000000E+000	0.0000000E+000	1.97314	0.0000000E+000	0.0000000E+000	0.0000000E+000	-1.97314	0.0000000E+000	0.0000000E+000	0.0000000E+000	-88.0269	0.0000000E+000	0.0000000E+000	0.0000000E+000	88.0269	0.0344515	88.0269	3.41605e-08
1.55627	257.096	11665.5	11668.3	-88.7375	18.9375	0.0428849	0.000116574	8.76658	8.76233	1	14	0.0092883	7.96026e-07	0	-3.77361e-05	1.88832e-06	8.56812e-05	8.5702e-05	88.7375	8762.33	193.113	8764.45	-1.26254	0.0000000E+000	0.0000000E+000	0.0000000E+000	1.26254	0.0000000E+000	0.0000000E+000	0.0000000E+000	-1.26254	0.0000000E+000	0.0000000E+000	0.0000000E+000	-88.7375	0.0000000E+000	0.0000000E+000	0.0000000E+000	88.7375	0.022039	88.7375	9.87468e-10
0.710357	-758.712	32023.4	32032.4	-91.3572	23.9822	0.0428827	-8.69431e-06	6.99643	6.9925	1	14	0.00926174	2.89137e-07	0	-3.77202e-05	-7.39433e-07	3.12097e-05	3.12184e-05	91.3572	6992.5	-165.67	6994.47	1.35722	0.0000000E+000	0.0000000E+000	0.0000000E+000	-1.35722	0.0000000E+000	0.0000000E+000	0.0000000E+000	1.35722	0.0000000E+000	0.0000000E+000	0.0000000E+000	-91.3572	0.0000000E+000	0.0000000E+000	0.0000000E+000	91.3572	-0.0236924	91.3572	-5.22662e-08
0.324439	2500.84	59657.1	59709.5	-87.5996	34.9211	0.0429043	-1.39404e-06	8.22289	8.20847	1	14	0.00926103	1.55102e-07	0	-3.76861e-05	7.01453e-07	1.67331e-05	1.67478e-05	87.5996	8208.47	344.101	8215.68	-2.40044	0.0000000E+000	0.0000000E+000	0.0000000E+000	2.40044	0.0000000E+000	0.0000000E+000	0.0000000E+000	-2.40044	0.0000000E+000	0.0000000E+000	0.0000000E+000	-87.5996	0.0000000E+000	0.0000000E+000	0.0000000E+000	87.5996	0.0419202	87.5996	4.72142e-08
0.147897	1432.48	166313	166319	-89.5065	58.8156	0.0429018	5.42181e-06	6.47047	6.46999	1	14	0.00926203	5.56884e-08	0	-3.764e-05	5.1785e-08	6.01232e-06	6.01255e-06	89.5065	6469.99	55.727	6470.23	-0.493484	0.0000000E+000	0.0000000E+000	0.0000000E+000	0.493484	0.0000000E+000	0.0000000E+000	0.0000000E+000	-0.493484	0.0000000E+000	0.0000000E+000	0.0000000E+000	-89.5065	0.0000000E+000	0.0000000E+000	0.0000000E+000	89.5065	0.00861316	89.5065	3.65647e-08
0.0999041	9104.12	184758	184982	-87.179	79.8905	0.0429028	-7.76496e-07	8.62251	8.60162	1	14	0.009265	5.0086e-08	0	-3.76892e-05	2.66059e-07	5.39938e-06	5.40593e-06	87.179	8601.62	423.853	8612.06	-2.82102	0.0000000E+000	0.0000000E+000	0.0000000E+000	2.82102	0.0000000E+000	0.0000000E+000	0.0000000E+000	-2.82102	0.0000000E+000	0.0000000E+000	0.0000000E+000	-87.179	0.0000000E+000	0.0000000E+000	0.0000000E+000	87.179	0.049276	87.179	-4.92075e-08