File: Lares Oxides/2024-6-26 Ni45Co45Fe10Ox on FTO_1_07mg_01_PEIS_C05.mpt
EC-Lab ASCII FILE
Nb header lines : 66

Potentio Electrochemical Impedance Spectroscopy

Run on channel : 5 (SN 39658)
User :
CE vs. WE compliance from -10 V to 10 V
Electrode connection : standard
Potential control : Ewe
Ewe ctrl range : min = -2.50 V, max = 2.50 V
Safety Limits :
	Do not start on E overload
Acquisition started on : 06/26/2024 16:18:27.404
Technique started on : 06/26/2024 16:18:29.198
Loaded Setting File :  NONE
Saved on :
	File : 2024-6-26 Ni45Co45Fe10Ox on FTO_1_07mg_01_PEIS_C05.mpr
	Directory : C:\Users\sfolkman\OneDrive - New Mexico State University\Folkman Group Folder\Scott\
	Host : 172.24.124.15
Device : VSP (SN 1910)
Address : USB
EC-Lab for windows v11.46 (software)
Internet server v11.40 (firmware)
Command interpretor v11.40 (firmware)
Electrode material :
Initial state :
Electrolyte :
Comments :
Current amplifier : VSPB-4A
Electrode surface area : 0.000 cm²
Characteristic mass : 0.001 g
Equivalent Weight : 0.000 g/eq.
Density : 0.000 g/cm3
Volume (V) : 0.001 cm³
Record Ece
Cycle Definition : Charge/Discharge alternance
Mode                Single sine
E (V)               0.0000
vs.                 Eoc
tE (h:m:s)          0:00:0.0000
record              0
dI                  0.000
unit dI             mA
dt (s)              0.000
fi                  200.000
unit fi             kHz
ff                  100.000
unit ff             mHz
Nd                  6
Points              per decade
spacing             Logarithmic
Va (mV)             10.0
pw                  0.10
Na                  2
corr                0
E range min (V)     -2.500
E range max (V)     2.500
I Range             Auto
Bandwidth           4
nc cycles           0
goto Ns'            0
nr cycles           0
inc. cycle          0

freq/Hz	Re(Z)/Ohm	-Im(Z)/Ohm	|Z|/Ohm	Phase(Z)/deg	time/s	<Ewe>/V	<I>/mA	Cs/µF	Cp/µF	cycle number	I Range	|Ewe|/V	|I|/A	Ns	(Q-Qo)/mA.h	<Ece>/V	|Ece|/V	Phase(Zce)/deg	|Zce|/Ohm	Re(Zce)/Ohm	-Im(Zce)/Ohm	Phase(Zwe-ce)/deg	|Zwe-ce|/Ohm	Re(Zwe-ce)/Ohm	-Im(Zwe-ce)/Ohm	Re(Y)/Ohm-1	Im(Y)/Ohm-1	|Y|/Ohm-1	Phase(Y)/deg	dq/mA.h
199998	6.59499	13.5691	15.0869	-64.0788	1.79353	0.237646	-0.0135644	0.0586468	0.0474402	1	10	0.00968004	0.000641621	0	-1.09438e-06	0.0177738	0.0111317	51.7146	17.3494	10.7493	-13.6181	0.162176	17.3444	17.3443	-0.0490932	0.0289746	0.0596145	0.0662829	64.0788	-1.09438e-06
91291.2	11.2995	12.1506	16.5927	-47.0784	2.86354	0.23775	-0.0143647	0.143481	0.0769408	1	10	0.0101945	0.000614396	0	4.58252e-06	0.00729088	0.00778871	58.984	12.677	6.53217	-10.8645	-4.12524	17.878	17.8317	1.28609	0.041042	0.0441332	0.0602676	47.0784	7.51315e-06
41669.8	18.481	7.50294	19.946	-22.0962	3.79956	0.237707	-0.0143237	0.509059	0.072031	1	10	0.010482	0.000525518	0	-1.16256e-05	0.00937219	0.00289125	87.6118	5.50172	0.229258	-5.49694	-6.1195	18.8175	18.7103	2.00599	0.0464531	0.0188591	0.0501354	22.0962	-6.42712e-06
19020.9	18.9849	4.10141	19.4228	-12.1906	4.60154	0.237847	-0.00838277	2.04012	0.0909696	1	10	0.0103623	0.000533509	0	-1.50069e-05	0.00730997	0.00112779	66.7308	2.11391	0.835106	-1.94197	-6.21802	19.9373	19.82	2.15945	0.0503248	0.010872	0.0514858	12.1906	2.95239e-06
8684.68	19.6299	3.73781	19.9826	-10.7808	5.40352	0.237724	-0.0129129	4.90286	0.171545	1	10	0.0101242	0.000506651	0	-1.52608e-05	0.00952495	0.000580518	27.6655	1.14579	1.0148	-0.532002	-8.82665	20.8922	20.6447	3.20581	0.0491602	0.00936077	0.0500434	10.7808	1.83887e-06
3960.08	20.3323	4.37663	20.798	-12.1478	6.13985	0.237698	-0.0156564	9.18285	0.406643	1	10	0.0100762	0.000484482	0	-1.60552e-05	0.00832199	0.000650263	-5.50532	1.34218	1.33599	0.128767	-11.7459	22.1317	21.6683	4.50539	0.0470049	0.010118	0.0480816	12.1478	-2.16514e-07
1808.26	21.5129	7.3716	22.7409	-18.9145	7.03903	0.237845	-0.0147928	11.9398	1.2546	1	10	0.0104154	0.000458003	0	-2.16654e-05	0.00622158	0.000610638	-27.8432	1.33326	1.17891	0.622704	-19.4073	24.0588	22.6918	7.99431	0.0415993	0.0142544	0.0439737	18.9145	-3.08703e-06
825.264	23.2027	13.2908	26.7397	-29.8045	7.95279	0.237813	-0.013341	14.5103	3.5848	1	10	0.0103329	0.000386426	0	-2.45417e-05	0.00824561	0.000732685	-46.5542	1.89606	1.30386	1.37659	-30.9008	28.5605	24.5066	14.6673	0.0324509	0.0185882	0.0373976	29.8045	-1.14354e-07
377.051	26.7597	24.6842	36.4059	-42.6896	9.12375	0.237775	-0.00183269	17.1002	7.86132	1	11	0.0106097	0.000291428	0	-2.6081e-05	0.00834108	0.000924198	-63.4858	3.17128	1.41572	2.83773	-44.3278	39.3866	28.1754	27.5219	0.0201901	0.0186241	0.0274681	42.6896	1.22738e-06
172.037	32.9959	46.6297	57.1232	-54.7161	10.0345	0.237794	-0.00188706	19.8397	13.2201	1	11	0.0103806	0.000181722	0	-2.59381e-05	0.00900939	0.00113898	-71.3996	6.26767	1.99917	5.94028	-56.3488	63.1527	34.9951	52.57	0.010112	0.0142902	0.017506	54.7161	-6.31164e-07
78.5176	45.2919	88.2368	99.1821	-62.8286	10.9526	0.237827	-0.0016145	22.9722	18.1818	1	11	0.0103278	0.00010413	0	-2.68028e-05	0.00900939	0.00135089	-75.5647	12.9732	3.23403	12.5636	-64.2936	111.873	48.5259	100.8	0.00460419	0.00896981	0.0100825	62.8286	1.44863e-08
35.8372	68.0117	165.674	179.09	-67.6811	12.1232	0.237815	-3.66908e-06	26.8061	22.9401	1	12	0.0103974	5.8057e-05	0	-2.61924e-05	0.00803557	0.00149287	-78.2059	25.7139	5.25582	25.171	-68.9976	204.426	73.2675	190.845	0.00212051	0.00516546	0.00558377	67.6811	4.3494e-07
16.367	113.777	318.135	337.868	-70.321	13.0161	0.237901	-0.000211258	30.5662	27.0999	1	12	0.0104291	3.08674e-05	0	-2.61399e-05	0.00988775	0.00150819	-85.08	48.8602	4.1905	48.6801	-72.1722	385.317	117.968	366.815	0.000996693	0.00278687	0.00295973	70.321	-1.66362e-07
7.46893	184.017	603.222	630.665	-73.0353	13.7537	0.237817	-0.000176226	35.3252	32.3177	1	12	0.0103329	1.63841e-05	0	-2.62788e-05	0.0114153	0.00167529	-80.2687	102.25	17.2831	100.779	-74.0428	732.215	201.3	704.001	0.000462659	0.00151663	0.00158563	73.0353	-1.07685e-07
3.4086	312.407	1143.18	1185.1	-74.7155	15.1144	0.237778	-0.00015485	40.8441	38.0058	1	13	0.0102847	8.67833e-06	0	-2.61134e-05	0.00467491	0.00188951	-82.2665	217.728	29.2988	215.748	-75.8855	1401.23	341.706	1358.93	0.000222439	0.000813963	0.00084381	74.7155	5.68661e-08
1.55627	668.828	2198.35	2297.84	-73.0781	17.4488	0.237824	-0.000101963	46.5196	42.5785	1	13	0.0102998	4.48238e-06	0	-2.62949e-05	0.00952495	0.00204754	-78.7954	456.798	88.762	448.091	-74.0253	2752.75	757.59	2646.44	0.00012667	0.000416348	0.000435191	73.0781	-7.41625e-08
0.710357	1196.97	4249.4	4414.77	-74.2685	23.4799	0.237806	2.82364e-06	52.7249	48.849	1	14	0.0102803	2.32863e-06	0	-2.61111e-05	0.00681351	0.00218352	-78.1813	937.685	192.052	917.807	-74.9537	5350.65	1389.02	5167.21	6.14141e-05	0.000218028	0.000226512	74.2685	1.01284e-07
0.324439	2668.55	8213.51	8636.14	-72.0011	34.4028	0.237812	-1.50886e-05	59.7252	54.0227	1	14	0.0102768	1.18998e-06	0	-2.60536e-05	0.00645071	0.00227277	-73.9852	1909.93	526.921	1835.81	-72.3604	10545.1	3195.47	10049.3	3.57796e-05	0.000110126	0.000115792	72.0011	-6.07164e-09
0.147897	6181.66	15079.1	16297	-67.7088	58.293	0.237806	-2.75457e-05	71.3652	61.0973	1	14	0.0102808	6.30842e-07	0	-2.63883e-05	0.00872297	0.00235052	-66.3158	3726.01	1496.72	3412.18	-67.4496	20022.1	7678.38	18491.3	2.32751e-05	5.67755e-05	6.13611e-05	67.7088	-2.29637e-07
0.0999041	9290.91	19374.3	21486.8	-64.38	79.3703	0.237809	-4.27574e-05	82.2265	66.8525	1	14	0.0102805	4.78454e-07	0	-2.67634e-05	0.0113389	0.00241189	-60.7576	5041	2462.55	4398.58	-63.6919	26519.7	11753.5	23772.8	2.0124e-05	4.19644e-05	4.65402e-05	64.38	-3.75124e-07