File: Lares Oxides/2024-6-21 NiOx on FTO_2_50mg_CP1_C02.mpt
EC-Lab ASCII FILE
Nb header lines : 54

Chronopotentiometry

Run on channel : 2 (SN 39659)
User :
CE vs. WE compliance from -18 V to 2 V
Electrode connection : standard
Potential control : Ewe
Ewe ctrl range : min = 0.00 V, max = 5.00 V
Safety Limits :
	Do not start on E overload
Acquisition started on : 06/21/2024 12:12:42.287
Technique started on : 06/21/2024 12:12:43.287
Loaded Setting File :  NONE
Saved on :
	File : 2024-6-21 NiOx on FTO_2_50mg_CP1_C02.mpr
	Directory : C:\Users\sfolkman\OneDrive - New Mexico State University\Folkman Group Folder\Scott\
	Host : 172.24.124.15
Device : VSP (SN 1910)
Address : USB
EC-Lab for windows v11.46 (software)
Internet server v11.40 (firmware)
Command interpretor v11.40 (firmware)
Electrode material :
Initial state :
Electrolyte :
Comments :
Electrode surface area : 0.001 cm²
Characteristic mass : 0.001 g
Equivalent Weight : 0.000 g/eq.
Density : 0.000 g/cm3
Volume (V) : 0.001 cm³
Record Ece
Cycle Definition : Charge/Discharge alternance
Is                  10.000
unit Is             mA
vs.                 <None>
ts (h:m:s)          48:00:0.0000
EM (V)              5.000
dQM                 480.000
unit dQM            mA.h
record              <Ewe>
dEs (mV)            0.00
dts (s)             1.0000
E range min (V)     0.000
E range max (V)     5.000
I Range             10 mA
Bandwidth           5
goto Ns'            0
nc cycles           0

mode	ox/red	error	control changes	Ns changes	counter inc.	Ns	time/s	control/mA	<Ewe>/V	I/mA	dQ/C	(Q-Qo)/C	half cycle	Q charge/discharge/mA.h	I Range	<Ece>/V	Energy charge/W.h	Energy discharge/W.h	Capacitance charge/µF	Capacitance discharge/µF	Q discharge/mA.h	Q charge/mA.h	Capacity/mA.h	Efficiency/%	cycle number	P/W	Ewe-Ece/V
1	1	0	0	0	0	0	1	10	1.0409	10.0043	0.00950179	0.00950179	0	0.00263939	11	-0.942138	2.74733e-06	0.000000000000000E+000	0.000000000000000E+000	0.000000000000000E+000	0.000000000000000E+000	0.00263939	0.00263939	0.0000000E+000	0.000000000000000E+000	0.0104135	1.98303
1	1	0	0	0	0	0	122	10	1.13184	10.0033	1.21997	1.21997	0	0.33888	11	-1.04349	0.000380562	0.000000000000000E+000	1.3415e+07	0.000000000000000E+000	0.000000000000000E+000	0.33888	0.33888	0.0000000E+000	0.000000000000000E+000	0.0113221	2.17532
1	1	0	0	0	0	0	243	10	1.1831	10.0036	2.43042	2.43042	0	0.675118	11	-1.0544	0.000768917	0.000000000000000E+000	1.70913e+07	0.000000000000000E+000	0.000000000000000E+000	0.675118	0.675118	0.0000000E+000	0.000000000000000E+000	0.0118353	2.2375
1	1	0	0	0	0	0	364	10	1.19022	10.0036	3.64088	3.64088	0	1.01136	11	-1.0618	0.00116827	0.000000000000000E+000	2.43823e+07	0.000000000000000E+000	0.000000000000000E+000	1.01136	1.01136	0.0000000E+000	0.000000000000000E+000	0.0119065	2.25202
1	1	0	0	0	0	0	485	10	1.1863	10.0034	4.85133	4.85133	0	1.34759	11	-1.06722	0.00157318	0.000000000000000E+000	3.3365e+07	0.000000000000000E+000	0.000000000000000E+000	1.34759	1.34759	0.0000000E+000	0.000000000000000E+000	0.0118671	2.25352
1	1	0	0	0	0	0	606	10	1.21602	10.0041	6.06179	6.06179	0	1.68383	11	-1.07174	0.00198491	0.000000000000000E+000	3.46134e+07	0.000000000000000E+000	0.000000000000000E+000	1.68383	1.68383	0.0000000E+000	0.000000000000000E+000	0.0121652	2.28777
1	1	0	0	0	0	0	727	10	1.2819	10.0036	7.27224	7.27224	0	2.02007	11	-1.07344	0.00240002	0.000000000000000E+000	3.01754e+07	0.000000000000000E+000	0.000000000000000E+000	2.02007	2.02007	0.0000000E+000	0.000000000000000E+000	0.0128235	2.35534
1	1	0	0	0	0	0	848	10	1.24742	10.0039	8.4827	8.4827	0	2.35631	11	-1.07475	0.00281363	0.000000000000000E+000	4.10728e+07	0.000000000000000E+000	0.000000000000000E+000	2.35631	2.35631	0.0000000E+000	0.000000000000000E+000	0.0124791	2.32217
1	1	0	0	0	0	0	969	10	1.27047	10.0031	9.69315	9.69315	0	2.69254	11	-1.07457	0.00323723	0.000000000000000E+000	4.22215e+07	0.000000000000000E+000	0.000000000000000E+000	2.69254	2.69254	0.0000000E+000	0.000000000000000E+000	0.0127086	2.34504
1	1	0	0	0	0	0	1090	10	1.28729	10.0036	10.9036	10.9036	0	3.02878	11	-1.07484	0.00366714	0.000000000000000E+000	4.42521e+07	0.000000000000000E+000	0.000000000000000E+000	3.02878	3.02878	0.0000000E+000	0.000000000000000E+000	0.0128776	2.36214
1	1	0	0	0	0	0	1211	10	1.30218	10.0036	12.1141	12.1141	0	3.36502	11	-1.07379	0.00410259	0.000000000000000E+000	4.63628e+07	0.000000000000000E+000	0.000000000000000E+000	3.36502	3.36502	0.0000000E+000	0.000000000000000E+000	0.0130266	2.37598
1	1	0	0	0	0	0	1332	10	1.31242	10.0037	13.3245	13.3245	0	3.70126	11	-1.07363	0.00454197	0.000000000000000E+000	4.9074e+07	0.000000000000000E+000	0.000000000000000E+000	3.70126	3.70126	0.0000000E+000	0.000000000000000E+000	0.013129	2.38605
1	1	0	0	0	0	0	1453	10	1.32469	10.0035	14.535	14.535	0	4.03749	11	-1.07479	0.00498533	0.000000000000000E+000	5.12161e+07	0.000000000000000E+000	0.000000000000000E+000	4.03749	4.03749	0.0000000E+000	0.000000000000000E+000	0.0132516	2.39949
1	1	0	0	0	0	0	1574	10	1.3309	10.0039	15.7454	15.7454	0	4.37373	11	-1.0761	0.00543262	0.000000000000000E+000	5.42944e+07	0.000000000000000E+000	0.000000000000000E+000	4.37373	4.37373	0.0000000E+000	0.000000000000000E+000	0.0133142	2.407
1	1	0	0	0	0	0	1695	10	1.34235	10.0033	16.9559	16.9559	0	4.70997	11	-1.07746	0.00588204	0.000000000000000E+000	5.6247e+07	0.000000000000000E+000	0.000000000000000E+000	4.70997	4.70997	0.0000000E+000	0.000000000000000E+000	0.013428	2.41981
1	1	0	0	0	0	0	1816	10	1.35287	10.004	18.1663	18.1663	0	5.04621	11	-1.07905	0.00633516	0.000000000000000E+000	5.8231e+07	0.000000000000000E+000	0.000000000000000E+000	5.04621	5.04621	0.0000000E+000	0.000000000000000E+000	0.0135341	2.43191
1	1	0	0	0	0	0	1937	10	1.36298	10.0036	19.3768	19.3768	0	5.38245	11	-1.0797	0.00679182	0.000000000000000E+000	6.01609e+07	0.000000000000000E+000	0.000000000000000E+000	5.38245	5.38245	0.0000000E+000	0.000000000000000E+000	0.0136348	2.44268
1	1	0	0	0	0	0	2058	10	1.37312	10.0036	20.5873	20.5873	0	5.71868	11	-1.08015	0.0072519	0.000000000000000E+000	6.19673e+07	0.000000000000000E+000	0.000000000000000E+000	5.71868	5.71868	0.0000000E+000	0.000000000000000E+000	0.0137362	2.45328
1	1	0	0	0	0	0	2179	10	1.38312	10.0042	21.7977	21.7977	0	6.05492	11	-1.08272	0.00771532	0.000000000000000E+000	6.36943e+07	0.000000000000000E+000	0.000000000000000E+000	6.05492	6.05492	0.0000000E+000	0.000000000000000E+000	0.013837	2.46584
1	1	0	0	0	0	0	2300	10	1.39324	10.0034	23.0082	23.0082	0	6.39116	11	-1.08336	0.00818218	0.000000000000000E+000	6.52998e+07	0.000000000000000E+000	0.000000000000000E+000	6.39116	6.39116	0.0000000E+000	0.000000000000000E+000	0.0139371	2.47661
1	1	0	0	0	0	0	2421	10	1.40297	10.004	24.2186	24.2186	0	6.72739	11	-1.08347	0.00865225	0.000000000000000E+000	6.68891e+07	0.000000000000000E+000	0.000000000000000E+000	6.72739	6.72739	0.0000000E+000	0.000000000000000E+000	0.0140352	2.48643
1	1	0	0	0	0	0	2542	10	1.41172	10.004	25.4291	25.4291	0	7.06363	11	-1.08398	0.00912547	0.000000000000000E+000	6.85741e+07	0.000000000000000E+000	0.000000000000000E+000	7.06363	7.06363	0.0000000E+000	0.000000000000000E+000	0.0141228	2.4957
1	1	0	0	0	0	0	2663	10	1.42008	10.0039	26.6395	26.6395	0	7.39987	11	-1.08361	0.00960154	0.000000000000000E+000	7.02543e+07	0.000000000000000E+000	0.000000000000000E+000	7.39987	7.39987	0.0000000E+000	0.000000000000000E+000	0.0142064	2.50369
1	1	0	0	0	0	0	2784	10	1.42891	10.0041	27.85	27.85	0	7.73611	11	-1.0848	0.0100806	0.000000000000000E+000	7.17754e+07	0.000000000000000E+000	0.000000000000000E+000	7.73611	7.73611	0.0000000E+000	0.000000000000000E+000	0.014295	2.51371
1	1	0	0	0	0	0	2905	10	1.43712	10.0034	29.0604	29.0604	0	8.07234	11	-1.08633	0.0105624	0.000000000000000E+000	7.33434e+07	0.000000000000000E+000	0.000000000000000E+000	8.07234	8.07234	0.0000000E+000	0.000000000000000E+000	0.0143761	2.52345
1	1	0	0	0	0	0	3026	10	1.44521	10.0034	30.2709	30.2709	0	8.40858	11	-1.0867	0.0110471	0.000000000000000E+000	7.48701e+07	0.000000000000000E+000	0.000000000000000E+000	8.40858	8.40858	0.0000000E+000	0.000000000000000E+000	0.014457	2.5319
1	1	0	0	0	0	0	3147	10	1.45309	10.004	31.4813	31.4813	0	8.74482	11	-1.0885	0.0115344	0.000000000000000E+000	7.63752e+07	0.000000000000000E+000	0.000000000000000E+000	8.74482	8.74482	0.0000000E+000	0.000000000000000E+000	0.0145366	2.54159
1	1	0	0	0	0	0	3268	10	1.46559	10.0031	32.6918	32.6918	0	9.08106	11	-1.08883	0.0120245	0.000000000000000E+000	7.69768e+07	0.000000000000000E+000	0.000000000000000E+000	9.08106	9.08106	0.0000000E+000	0.000000000000000E+000	0.0146604	2.55442
1	1	0	0	0	0	0	3389	10	1.47631	10.0043	33.9023	33.9023	0	9.4173	11	-1.08981	0.0125189	0.000000000000000E+000	7.78624e+07	0.000000000000000E+000	0.000000000000000E+000	9.4173	9.4173	0.0000000E+000	0.000000000000000E+000	0.0147694	2.56612
1	1	0	0	0	0	0	3510	10	1.48038	10.0036	35.1127	35.1127	0	9.75353	11	-1.092	0.0130162	0.000000000000000E+000	7.98944e+07	0.000000000000000E+000	0.000000000000000E+000	9.75353	9.75353	0.0000000E+000	0.000000000000000E+000	0.0148091	2.57238
1	1	0	0	0	0	0	3631	10	1.48796	10.0038	36.3232	36.3232	0	10.0898	11	-1.09369	0.0135156	0.000000000000000E+000	8.12485e+07	0.000000000000000E+000	0.000000000000000E+000	10.0898	10.0898	0.0000000E+000	0.000000000000000E+000	0.0148853	2.58165
1	1	0	0	0	0	0	3752	10	1.49642	10.0036	37.5336	37.5336	0	10.426	11	-1.0921	0.0140175	0.000000000000000E+000	8.23963e+07	0.000000000000000E+000	0.000000000000000E+000	10.426	10.426	0.0000000E+000	0.000000000000000E+000	0.0149697	2.58853
1	1	0	0	0	0	0	3873	10	1.50502	10.0034	38.7441	38.7441	0	10.7622	11	-1.0918	0.014522	0.000000000000000E+000	8.34775e+07	0.000000000000000E+000	0.000000000000000E+000	10.7622	10.7622	0.0000000E+000	0.000000000000000E+000	0.0150554	2.59682
1	1	0	0	0	0	0	3994	10	1.51136	10.0034	39.9546	39.9546	0	11.0985	11	-1.09424	0.0150291	0.000000000000000E+000	8.49267e+07	0.000000000000000E+000	0.000000000000000E+000	11.0985	11.0985	0.0000000E+000	0.000000000000000E+000	0.0151188	2.60559
1	1	0	0	0	0	0	4115	10	1.52161	10.004	41.165	41.165	0	11.4347	11	-1.09484	0.0155391	0.000000000000000E+000	8.56339e+07	0.000000000000000E+000	0.000000000000000E+000	11.4347	11.4347	0.0000000E+000	0.000000000000000E+000	0.0152221	2.61645
1	1	0	0	0	0	0	4236	10	1.52788	10.0036	42.3755	42.3755	0	11.771	11	-1.09574	0.0160517	0.000000000000000E+000	8.70155e+07	0.000000000000000E+000	0.000000000000000E+000	11.771	11.771	0.0000000E+000	0.000000000000000E+000	0.0152843	2.62363
1	1	0	0	0	0	0	4357	10	1.53599	10.0038	43.5859	43.5859	0	12.1072	11	-1.09744	0.0165667	0.000000000000000E+000	8.80351e+07	0.000000000000000E+000	0.000000000000000E+000	12.1072	12.1072	0.0000000E+000	0.000000000000000E+000	0.0153657	2.63343
1	1	0	0	0	0	0	4478	10	1.54397	10.0036	44.7964	44.7964	0	12.4434	11	-1.09852	0.0170841	0.000000000000000E+000	8.9046e+07	0.000000000000000E+000	0.000000000000000E+000	12.4434	12.4434	0.0000000E+000	0.000000000000000E+000	0.0154453	2.64248
1	1	0	0	0	0	0	4599	10	1.5566	10.0033	46.0068	46.0068	0	12.7797	11	-1.09799	0.0176056	0.000000000000000E+000	8.92112e+07	0.000000000000000E+000	0.000000000000000E+000	12.7797	12.7797	0.0000000E+000	0.000000000000000E+000	0.0155712	2.65459
1	1	0	0	0	0	0	4720	10	1.57234	10.0036	47.2173	47.2173	0	13.1159	11	-1.09833	0.018131	0.000000000000000E+000	8.88472e+07	0.000000000000000E+000	0.000000000000000E+000	13.1159	13.1159	0.0000000E+000	0.000000000000000E+000	0.0157291	2.67067
1	1	0	0	0	0	0	4841	10	1.58103	10.004	48.4278	48.4278	0	13.4522	11	-1.10024	0.0186613	0.000000000000000E+000	8.96594e+07	0.000000000000000E+000	0.000000000000000E+000	13.4522	13.4522	0.0000000E+000	0.000000000000000E+000	0.0158165	2.68127
1	1	0	0	0	0	0	4962	10	1.58992	10.0042	49.6382	49.6382	0	13.7884	11	-1.10057	0.0191945	0.000000000000000E+000	9.04116e+07	0.000000000000000E+000	0.000000000000000E+000	13.7884	13.7884	0.0000000E+000	0.000000000000000E+000	0.0159059	2.69049
1	1	0	0	0	0	0	5051.83	10	1.59723	10.004	50.5369	50.5369	0	14.038	11	-1.1025	0.0195924	0.000000000000000E+000	9.08387e+07	0.000000000000000E+000	0.000000000000000E+000	14.038	14.038	0.0000000E+000	0.000000000000000E+000	0.0159786	2.69973