File: Lares Oxides/2024-6-26 CoOx on FTO_1_03mg_02_CV_C05.mpt
EC-Lab ASCII FILE
Nb header lines : 60

Cyclic Voltammetry

Run on channel : 5 (SN 39658)
User :
CE vs. WE compliance from -10 V to 10 V
Electrode connection : standard
Potential control : Ewe
Ewe ctrl range : min = -2.50 V, max = 2.50 V
Safety Limits :
	Do not start on E overload
Acquisition started on : 06/26/2024 14:29:21.159
Technique started on : 06/26/2024 14:30:41.093
Loaded Setting File :  C:\Users\sfolkman\OneDrive - New Mexico State University\Folkman Group Folder\Scott\2024-6-19 FeOx on FTO_1_03mg.mps
Saved on :
	File : 2024-6-26 CoOx on FTO_1_03mg_02_CV_C05.mpr
	Directory : C:\Users\sfolkman\OneDrive - New Mexico State University\Folkman Group Folder\Scott\
	Host : 172.24.124.15
Device : VSP (SN 1910)
Address : USB
EC-Lab for windows v11.46 (software)
Internet server v11.40 (firmware)
Command interpretor v11.40 (firmware)
Electrode material :
Initial state :
Electrolyte :
Comments :
Current amplifier : VSPB-4A
Electrode surface area : 0.001 cm²
Characteristic mass : 0.001 g
Equivalent Weight : 0.000 g/eq.
Density : 0.000 g/cm3
Volume (V) : 0.001 cm³
Record Ece
Cycle Definition : Charge/Discharge alternance
Ei (V)              0.000
vs.                 Eoc
dE/dt               10.000
dE/dt unit          mV/s
E1 (V)              1.000
vs.                 Ref
Step percent        50
N                   10
E range min (V)     -2.500
E range max (V)     2.500
I Range             Auto
I Range min         Unset
I Range max         Unset
I Range init        Unset
Bandwidth           4
E2 (V)              0.000
vs.                 Ref
nc cycles           2
Reverse Scan        1
Ef (V)              0.000
vs.                 Eoc

mode	ox/red	error	control changes	counter inc.	time/s	control/V	Ewe/V	<I>/mA	cycle number	(Q-Qo)/C	I Range	<Ece>/V	P/W	Ewe-Ece/V
2	0	0	1	0	79.9338	0.183857	0.184006	-0.000829816	1	0.0000000E+000	13	0.101099	-1.52691e-07	0.0829073
2	1	0	0	0	85.3906	0.238426	0.238801	0.00820656	1	2.03642e-05	13	0.0380002	1.95973e-06	0.2008
2	1	0	0	0	90.8926	0.293445	0.293849	0.0219769	1	0.000102481	13	-0.0222244	6.45789e-06	0.316074
2	1	0	0	0	96.3946	0.348465	0.348926	0.0412562	1	0.000277283	13	-0.0451013	1.43953e-05	0.394027
2	1	0	1	0	101.896	0.403484	0.403991	0.0639752	1	0.000568625	13	-0.0633974	2.58454e-05	0.467388
2	1	0	1	0	107.398	0.458504	0.458787	0.0923096	1	0.000996838	13	-0.0866216	4.23505e-05	0.545409
2	1	0	1	0	112.93	0.513823	0.514162	0.147459	1	0.00163561	12	-0.153725	7.58177e-05	0.667887
2	1	0	1	0	118.432	0.568842	0.569201	0.38335	1	0.00298101	12	-0.623132	0.000218203	1.19233
2	1	0	0	0	123.934	0.623862	0.624136	0.849337	1	0.00626238	12	-0.952054	0.000530101	1.57619
2	1	0	0	0	129.466	0.679181	0.679628	1.66263	1	0.0130324	11	-0.982498	0.00112997	1.66213
2	1	0	0	0	134.968	0.734201	0.734441	2.85881	1	0.0253156	11	-1.00975	0.00209963	1.74419
2	1	0	1	0	140.47	0.789221	0.789566	4.36012	1	0.0450772	11	-1.03397	0.0034426	1.82354
2	1	0	1	0	145.972	0.84424	0.844793	6.03059	1	0.0736273	11	-1.05542	0.0050946	1.90021
2	1	0	1	0	151.474	0.899259	0.899692	7.76087	1	0.111588	11	-1.07602	0.00698239	1.97571
2	1	0	1	0	156.976	0.954279	0.954873	9.38037	1	0.158871	11	-1.09428	0.00895706	2.04915
2	1	0	1	0	162.308	0.992492	0.993132	9.74877	1	0.211725	11	-1.09859	0.00968182	2.09172
2	1	0	0	0	167.81	0.937473	0.938119	6.30044	1	0.255644	11	-1.06371	0.00591056	2.00183
2	1	0	0	0	173.312	0.882453	0.882831	3.53741	1	0.282112	11	-1.02541	0.00312293	1.90824
2	1	0	0	0	178.814	0.827434	0.827824	1.91847	1	0.296749	11	-0.994038	0.00158815	1.82186
2	1	0	1	0	184.316	0.772415	0.772733	0.955744	1	0.304415	11	-0.967863	0.000738534	1.7406
2	1	0	1	0	189.848	0.717095	0.717895	0.407067	1	0.30803	12	-0.946273	0.000292231	1.66417
2	1	0	1	0	195.35	0.662075	0.662637	0.132988	1	0.309415	12	-0.92999	8.81228e-05	1.59263
2	1	0	1	0	200.882	0.606756	0.607101	0.0243914	1	0.309793	13	-0.919387	1.4808e-05	1.52649
2	0	0	1	0	206.384	0.551736	0.552152	-0.0107061	1	0.309811	13	-0.912528	-5.9114e-06	1.46468
2	0	0	0	0	211.886	0.496717	0.49718	-0.0207699	1	0.309716	13	-0.908206	-1.03264e-05	1.40539
2	0	0	0	0	217.388	0.441698	0.441993	-0.0184208	1	0.309604	13	-0.905806	-8.14187e-06	1.3478
2	0	0	0	0	222.89	0.386678	0.386885	-0.0142488	1	0.309514	13	-0.901055	-5.51265e-06	1.28794
2	0	0	1	0	228.392	0.331659	0.332126	-0.0112875	1	0.309446	13	-0.90058	-3.74889e-06	1.23271
2	0	0	1	0	233.894	0.276639	0.277173	-0.00704368	1	0.309391	13	-0.901323	-1.95232e-06	1.1785
2	0	0	1	0	239.396	0.22162	0.222264	-0.00829571	1	0.309346	13	-0.900095	-1.84384e-06	1.12236
2	0	0	1	0	244.897	0.166601	0.167336	-0.0073024	1	0.309304	13	-0.898684	-1.22195e-06	1.06602
2	0	0	0	0	250.399	0.111581	0.11209	-0.00697311	1	0.309264	13	-0.897714	-7.81614e-07	1.0098
2	0	0	0	0	255.901	0.0565617	0.0567458	-0.00651029	1	0.309225	13	-0.896496	-3.69431e-07	0.953241
2	0	0	0	0	261.403	0.0015423	0.0021276	-0.00639168	1	0.30919	13	-0.895564	-1.35989e-08	0.897691
2	0	0	0	1	266.816	0.0525603	0.0535291	-0.00527404	1	0.309159	13	-0.894805	-2.82315e-07	0.948334
2	0	0	0	1	272.318	0.10758	0.107957	-0.00455925	1	0.309133	13	-0.893942	-4.92205e-07	1.0019
2	0	0	0	1	277.82	0.162599	0.162638	-0.00360986	1	0.309111	13	-0.893444	-5.87101e-07	1.05608
2	0	0	1	1	283.182	0.216218	0.216966	-0.00249364	2	0.309096	13	-0.891177	-5.41033e-07	1.10814
2	1	0	1	1	288.684	0.271237	0.271692	-0.00127558	2	0.309087	13	-0.891255	-3.46566e-07	1.16295
2	1	0	1	1	294.186	0.326257	0.326588	0.000298532	2	0.309086	13	-0.891638	9.74972e-08	1.21823
2	1	0	0	1	299.687	0.381276	0.381817	0.00188331	2	0.309092	13	-0.891151	7.19079e-07	1.27297
2	0	0	0	1	305.189	0.436296	0.436515	0.00323311	2	0.309107	13	-0.891221	1.4113e-06	1.32774
2	1	0	0	1	310.691	0.491315	0.492088	0.00670842	2	0.309134	13	-0.891562	3.30114e-06	1.38365
2	1	0	1	1	316.193	0.546334	0.546997	0.0196458	2	0.309197	13	-0.894755	1.07462e-05	1.44175
2	1	0	1	1	321.695	0.601354	0.601931	0.0468707	2	0.309378	13	-0.902528	2.82129e-05	1.50446
2	1	0	1	1	327.227	0.656673	0.657083	0.105786	2	0.30977	12	-0.914245	6.95099e-05	1.57133
2	1	0	1	1	332.729	0.711693	0.712205	0.295298	2	0.310786	12	-0.936115	0.000210312	1.64832
2	1	0	1	1	338.231	0.766713	0.767045	0.712679	2	0.313442	12	-0.960314	0.000546657	1.72736
2	1	0	0	1	343.763	0.822032	0.822002	1.43171	2	0.319222	11	-0.984157	0.00117687	1.80616
2	1	0	0	1	349.265	0.877051	0.877572	2.38483	2	0.329726	11	-1.00574	0.00209286	1.88332
2	1	0	0	1	354.767	0.932071	0.932541	3.0897	2	0.345008	11	-1.01875	0.00288127	1.9513
2	1	0	1	1	360.269	0.98709	0.987185	3.95774	2	0.364132	11	-1.03234	0.00390702	2.01953
2	1	0	1	1	365.621	0.95948	0.959932	2.89161	2	0.38374	11	-1.01705	0.00277575	1.97698
2	1	0	1	1	371.123	0.904461	0.905241	1.55259	2	0.395698	11	-0.990365	0.00140547	1.89561
2	1	0	1	1	376.625	0.849442	0.849907	0.720439	2	0.401724	11	-0.966465	0.000612306	1.81637
2	1	0	1	1	382.157	0.794122	0.794655	0.306349	2	0.404416	12	-0.949715	0.000243442	1.74437
2	1	0	1	1	387.659	0.739102	0.739221	0.114384	2	0.405502	12	-0.939029	8.45551e-05	1.67825
2	1	0	0	1	393.191	0.683783	0.683937	0.0306846	2	0.405865	13	-0.932211	2.09863e-05	1.61615
2	1	0	0	1	398.693	0.628764	0.6294	0.004963	2	0.405944	13	-0.928646	3.12371e-06	1.55805
2	0	0	0	1	404.195	0.573744	0.574064	-0.000223912	2	0.405953	13	-0.926726	-1.2854e-07	1.50079
2	0	0	1	1	409.697	0.518725	0.519127	-0.00161292	2	0.405946	13	-0.925112	-8.3731e-07	1.44424
2	0	0	1	1	415.199	0.463705	0.463911	-0.00205869	2	0.405935	13	-0.923771	-9.55048e-07	1.38768
2	1	0	1	1	420.701	0.408686	0.409124	-0.00171134	2	0.405924	13	-0.922571	-7.00149e-07	1.33169
2	0	0	1	1	426.203	0.353667	0.354142	-0.00211447	2	0.405913	13	-0.921435	-7.48821e-07	1.27558
2	0	0	0	1	431.705	0.298647	0.299188	-0.00188486	2	0.405902	13	-0.92044	-5.63928e-07	1.21963
2	1	0	0	1	437.207	0.243628	0.24386	-0.00245927	2	0.40589	13	-0.919389	-5.99717e-07	1.16325
2	0	0	0	1	442.709	0.188608	0.189005	-0.00226092	2	0.405876	13	-0.918438	-4.27326e-07	1.10744
2	0	0	1	1	448.21	0.133589	0.134081	-0.00271201	2	0.405862	13	-0.917492	-3.63631e-07	1.05157
2	0	0	1	1	453.712	0.0785695	0.0787185	-0.00314667	2	0.405846	13	-0.916515	-2.47701e-07	0.995233
2	0	0	1	1	459.214	0.0235501	0.0238955	-0.0034299	2	0.405829	13	-0.915587	-8.19594e-08	0.939482
2	0	0	1	0	464.627	0.030553	0.0309009	-0.00280735	2	0.405811	13	-0.914854	-8.67494e-08	0.945755
2	0	0	1	0	470.129	0.085572	0.0860569	-0.0023662	2	0.405797	13	-0.91425	-2.03628e-07	1.00031
2	1	0	1	0	475.631	0.140591	0.14103	-0.00210471	2	0.405785	13	-0.913465	-2.96829e-07	1.0545
2	1	0	0	0	480.993	0.19421	0.194403	-0.00140498	3	0.405777	13	-0.912853	-2.73132e-07	1.10726
2	1	0	0	0	486.495	0.24923	0.249828	-0.000615169	3	0.405771	13	-0.912289	-1.53686e-07	1.16212
2	1	0	0	0	491.997	0.304249	0.304834	-1.40485e-05	3	0.40577	13	-0.911886	-4.28247e-09	1.21672
2	1	0	1	0	497.498	0.359269	0.359481	0.000199582	3	0.405771	13	-0.911251	7.17458e-08	1.27073
2	1	0	1	0	503	0.414288	0.414681	0.00080862	3	0.405776	13	-0.910642	3.35319e-07	1.32532
2	1	0	1	0	508.502	0.469307	0.469357	0.0016409	3	0.405784	13	-0.910332	7.70167e-07	1.37969
2	1	0	1	0	514.004	0.524327	0.524742	0.00324164	3	0.405797	13	-0.909875	1.70103e-06	1.43462
2	1	0	0	0	519.506	0.579346	0.579805	0.00527983	3	0.405822	13	-0.90939	3.06127e-06	1.4892
2	1	0	0	0	525.008	0.634366	0.634694	0.00840537	3	0.405857	13	-0.909585	5.33484e-06	1.54428
2	1	0	0	0	530.51	0.689385	0.689716	0.0333938	3	0.405953	13	-0.912995	2.30323e-05	1.60271
2	1	0	0	0	536.042	0.744704	0.745374	0.139463	3	0.406377	12	-0.926214	0.000103952	1.67159
2	1	0	1	0	541.544	0.799724	0.800235	0.44805	3	0.407858	12	-0.950179	0.000358546	1.75041
2	1	0	1	0	547.076	0.855043	0.855644	1.11646	3	0.412031	11	-0.978024	0.000955295	1.83367
2	1	0	1	0	552.578	0.910063	0.910498	2.01556	3	0.420569	11	-1.00076	0.00183516	1.91125
2	1	0	1	0	558.08	0.965082	0.965751	3.11476	3	0.434585	11	-1.0208	0.00300809	1.98655
2	1	0	1	0	563.432	0.981488	0.981537	3.32556	3	0.453582	11	-1.02484	0.00326416	2.00638
2	1	0	0	0	568.934	0.926469	0.926535	1.85946	3	0.467589	11	-0.999145	0.00172286	1.92568
2	1	0	0	0	574.436	0.871449	0.871967	0.903337	3	0.474962	11	-0.974704	0.00078768	1.84667
2	1	0	0	0	579.968	0.81613	0.816823	0.389854	3	0.47837	12	-0.955647	0.000318442	1.77247
2	1	0	1	0	585.47	0.761111	0.761889	0.149698	3	0.479776	12	-0.943677	0.000114053	1.70557
2	1	0	1	0	591.002	0.705791	0.705986	0.043129	3	0.480265	13	-0.936291	3.04484e-05	1.64228
2	1	0	1	0	596.504	0.650771	0.651088	0.00793737	3	0.480383	13	-0.932283	5.16793e-06	1.58337
2	1	0	1	0	602.006	0.595752	0.596078	0.000489804	3	0.4804	13	-0.930006	2.91961e-07	1.52608
2	1	0	1	0	607.508	0.540732	0.541164	-0.00135163	3	0.480397	13	-0.928614	-7.31457e-07	1.46978
2	0	0	0	0	613.01	0.485713	0.486233	-0.00203988	3	0.480386	13	-0.927301	-9.91855e-07	1.41353
2	1	0	0	0	618.512	0.430694	0.430956	-0.00174047	3	0.480375	13	-0.926124	-7.50066e-07	1.35708
2	0	0	0	0	624.014	0.375674	0.376496	-0.00160852	3	0.480364	13	-0.925113	-6.05602e-07	1.30161
2	0	0	1	0	629.516	0.320655	0.320869	-0.00169418	3	0.480354	13	-0.923983	-5.43611e-07	1.24485
2	0	0	1	0	635.018	0.265635	0.266046	-0.00193409	3	0.480342	13	-0.923203	-5.14556e-07	1.18925
2	0	0	1	0	640.52	0.210616	0.210626	-0.00212505	3	0.48033	13	-0.92238	-4.47591e-07	1.13301
2	0	0	1	0	646.021	0.155596	0.15618	-0.00232196	3	0.480316	13	-0.921502	-3.62645e-07	1.07768
2	0	0	0	0	651.523	0.100577	0.101227	-0.00254315	3	0.480302	13	-0.920651	-2.57435e-07	1.02188
2	0	0	0	0	657.025	0.0455578	0.0459191	-0.00274903	3	0.480286	13	-0.919583	-1.26233e-07	0.965502
2	0	0	1	1	662.438	0.00854388	0.00856257	-0.00326168	3	0.480269	13	-0.13695	-2.79284e-08	0.145512
2	0	0	0	1	667.94	0.0635642	0.0642412	-0.0026477	3	0.480254	13	-0.0428676	-1.70091e-07	0.107109
2	0	0	0	1	673.442	0.118584	0.118876	-0.0017639	3	0.480242	13	-0.0370838	-2.09686e-07	0.15596
2	1	0	0	1	678.944	0.173603	0.173642	-0.00166472	3	0.480233	13	-0.0336254	-2.89066e-07	0.207267
2	0	0	1	1	679.939	0.183557	0.183892	-0.00300342	3	0.480232	13	-0.0336039	-5.52305e-07	0.217496