File: Lares Oxides/2024-6-20 Ni65Co32Fe3Ox on FTO_1_00mg_CP2_C02.mpt
EC-Lab ASCII FILE
Nb header lines : 54

Chronopotentiometry

Run on channel : 2 (SN 39659)
User :
CE vs. WE compliance from -18 V to 2 V
Electrode connection : standard
Potential control : Ewe
Ewe ctrl range : min = 0.00 V, max = 5.00 V
Safety Limits :
	Do not start on E overload
Acquisition started on : 06/20/2024 09:22:15.527
Technique started on : 06/20/2024 09:22:16.527
Loaded Setting File :  NONE
Saved on :
	File : 2024-6-20 Ni65Co32Fe3Ox on FTO_1_00mg_CP2_C02.mpr
	Directory : C:\Users\sfolkman\OneDrive - New Mexico State University\Folkman Group Folder\Scott\
	Host : 172.24.124.15
Device : VSP (SN 1910)
Address : USB
EC-Lab for windows v11.46 (software)
Internet server v11.40 (firmware)
Command interpretor v11.40 (firmware)
Electrode material :
Initial state :
Electrolyte :
Comments :
Electrode surface area : 0.001 cm²
Characteristic mass : 0.001 g
Equivalent Weight : 0.000 g/eq.
Density : 0.000 g/cm3
Volume (V) : 0.001 cm³
Record Ece
Cycle Definition : Charge/Discharge alternance
Is                  10.000
unit Is             mA
vs.                 <None>
ts (h:m:s)          48:00:0.0000
EM (V)              5.000
dQM                 480.000
unit dQM            mA.h
record              <Ewe>
dEs (mV)            0.00
dts (s)             1.0000
E range min (V)     0.000
E range max (V)     5.000
I Range             10 mA
Bandwidth           5
goto Ns'            0
nc cycles           0

mode	ox/red	error	control changes	Ns changes	counter inc.	Ns	time/s	control/mA	<Ewe>/V	I/mA	dQ/C	(Q-Qo)/C	half cycle	Q charge/discharge/mA.h	I Range	<Ece>/V	Energy charge/W.h	Energy discharge/W.h	Capacitance charge/µF	Capacitance discharge/µF	Q discharge/mA.h	Q charge/mA.h	Capacity/mA.h	Efficiency/%	cycle number	P/W	Ewe-Ece/V
1	1	0	0	0	0	0	1	10	-3.93219	10.0045	0.00950168	0.00950168	0	0.00263936	11	-6.04127	1.03784e-05	0.000000000000000E+000	0.000000000000000E+000	0.000000000000000E+000	0.000000000000000E+000	0.00263936	0.00263936	0.0000000E+000	0.000000000000000E+000	-0.0393394	2.10909
1	1	0	0	0	0	0	176	10	1.14722	10.0041	1.76014	1.76014	0	0.488928	11	-1.09448	0.000665358	0.000000000000000E+000	346525	0.000000000000000E+000	0.000000000000000E+000	0.488928	0.488928	0.0000000E+000	0.000000000000000E+000	0.0114769	2.24169
1	1	0	0	0	0	0	351	10	1.15708	10.0036	3.51077	3.51077	0	0.975213	11	-1.10295	0.00122557	0.000000000000000E+000	689838	0.000000000000000E+000	0.000000000000000E+000	0.975213	0.975213	0.0000000E+000	0.000000000000000E+000	0.011575	2.26003
1	1	0	0	0	0	0	526	10	1.16366	10.003	5.2614	5.2614	0	1.4615	11	-1.11041	0.00179004	0.000000000000000E+000	1.03249e+06	0.000000000000000E+000	0.000000000000000E+000	1.4615	1.4615	0.0000000E+000	0.000000000000000E+000	0.0116401	2.27407
1	1	0	0	0	0	0	701	10	1.1678	10.0036	7.01203	7.01203	0	1.94779	11	-1.11459	0.00235698	0.000000000000000E+000	1.37491e+06	0.000000000000000E+000	0.000000000000000E+000	1.94779	1.94779	0.0000000E+000	0.000000000000000E+000	0.0116823	2.28239
1	1	0	0	0	0	0	876	10	1.17321	10.0031	8.76266	8.76266	0	2.43407	11	-1.11924	0.00292631	0.000000000000000E+000	1.71635e+06	0.000000000000000E+000	0.000000000000000E+000	2.43407	2.43407	0.0000000E+000	0.000000000000000E+000	0.0117357	2.29245
1	1	0	0	0	0	0	1051	10	1.17656	10.0042	10.5133	10.5133	0	2.92036	11	-1.12082	0.00349757	0.000000000000000E+000	2.0579e+06	0.000000000000000E+000	0.000000000000000E+000	2.92036	2.92036	0.0000000E+000	0.000000000000000E+000	0.0117705	2.29738
1	1	0	0	0	0	0	1226	10	-3.29073	10.0033	12.2639	12.2639	0	3.40664	11	-5.5982	0.00413116	0.000000000000000E+000	1.91188e+07	0.000000000000000E+000	0.000000000000000E+000	3.40664	3.40664	0.0000000E+000	0.000000000000000E+000	-0.032918	2.30748
1	1	0	0	0	0	0	1401	10	-4.16404	10.0041	14.0145	14.0145	0	3.89293	11	-6.47366	0.00602629	0.000000000000000E+000	6.04462e+07	0.000000000000000E+000	0.000000000000000E+000	3.89293	3.89293	0.0000000E+000	0.000000000000000E+000	-0.0416574	2.30962
1	1	0	0	0	0	0	1576	10	-4.36618	10.0041	15.7652	15.7652	0	4.37922	11	-6.67928	0.00810728	0.000000000000000E+000	3.63262e+07	0.000000000000000E+000	0.000000000000000E+000	4.37922	4.37922	0.0000000E+000	0.000000000000000E+000	-0.0436799	2.31311
1	1	0	0	0	0	0	1751	10	-4.53391	10.0029	17.5158	17.5158	0	4.86551	11	-6.85194	0.0102773	0.000000000000000E+000	2.91093e+07	0.000000000000000E+000	0.000000000000000E+000	4.86551	4.86551	0.0000000E+000	0.000000000000000E+000	-0.0453525	2.31802
1	1	0	0	0	0	0	1926	10	-4.63881	10.0029	19.2665	19.2665	0	5.3518	11	-6.96085	0.0125056	0.000000000000000E+000	2.72656e+07	0.000000000000000E+000	0.000000000000000E+000	5.3518	5.3518	0.0000000E+000	0.000000000000000E+000	-0.0464014	2.32205
1	1	0	0	0	0	0	2101	10	-4.69866	10.003	21.0171	21.0171	0	5.83808	11	-7.02764	0.0147765	0.000000000000000E+000	2.74207e+07	0.000000000000000E+000	0.000000000000000E+000	5.83808	5.83808	0.0000000E+000	0.000000000000000E+000	-0.0470007	2.32898
1	1	0	0	0	0	0	2276	10	-4.7377	10.0036	22.7677	22.7677	0	6.32437	11	-7.06834	0.0170777	0.000000000000000E+000	2.8265e+07	0.000000000000000E+000	0.000000000000000E+000	6.32437	6.32437	0.0000000E+000	0.000000000000000E+000	-0.0473942	2.33064
1	1	0	0	0	0	0	2451	10	1.16535	10.0031	24.5184	24.5184	0	6.81066	11	-1.13729	0.0179426	0.000000000000000E+000	4.80985e+06	0.000000000000000E+000	0.000000000000000E+000	6.81066	6.81066	0.0000000E+000	0.000000000000000E+000	0.0116571	2.30264
1	1	0	0	0	0	0	2626	10	1.16784	10.0044	26.269	26.269	0	7.29695	11	-1.14025	0.01851	0.000000000000000E+000	5.15076e+06	0.000000000000000E+000	0.000000000000000E+000	7.29695	7.29695	0.0000000E+000	0.000000000000000E+000	0.0116835	2.30808
1	1	0	0	0	0	0	2801	10	1.17112	10.0036	28.0196	28.0196	0	7.78323	11	-1.13858	0.0190792	0.000000000000000E+000	5.49048e+06	0.000000000000000E+000	0.000000000000000E+000	7.78323	7.78323	0.0000000E+000	0.000000000000000E+000	0.0117154	2.30971
1	1	0	0	0	0	0	2976	10	1.17388	10.0032	29.7703	29.7703	0	8.26952	11	-1.14106	0.0196492	0.000000000000000E+000	5.83037e+06	0.000000000000000E+000	0.000000000000000E+000	8.26952	8.26952	0.0000000E+000	0.000000000000000E+000	0.0117426	2.31494
1	1	0	0	0	0	0	3151	10	1.1775	10.0036	31.5209	31.5209	0	8.7558	11	-1.14122	0.020221	0.000000000000000E+000	6.16885e+06	0.000000000000000E+000	0.000000000000000E+000	8.7558	8.7558	0.0000000E+000	0.000000000000000E+000	0.0117793	2.31872
1	1	0	0	0	0	0	3326	10	1.18152	10.004	33.2715	33.2715	0	9.24209	11	-1.1427	0.0207947	0.000000000000000E+000	6.50634e+06	0.000000000000000E+000	0.000000000000000E+000	9.24209	9.24209	0.0000000E+000	0.000000000000000E+000	0.0118199	2.32422
1	1	0	0	0	0	0	3501	10	1.18148	10.0038	35.0222	35.0222	0	9.72838	11	-1.14373	0.0213691	0.000000000000000E+000	6.84874e+06	0.000000000000000E+000	0.000000000000000E+000	9.72838	9.72838	0.0000000E+000	0.000000000000000E+000	0.0118193	2.32521
1	1	0	0	0	0	0	3676	10	-3.47512	10.0041	36.7728	36.7728	0	10.2147	11	-5.80601	0.0220435	0.000000000000000E+000	8.04538e+07	0.000000000000000E+000	0.000000000000000E+000	10.2147	10.2147	0.0000000E+000	0.000000000000000E+000	-0.0347654	2.33089
1	1	0	0	0	0	0	3851	10	-4.2277	10.0038	38.5234	38.5234	0	10.701	11	-6.56187	0.0239909	0.000000000000000E+000	1.30361e+08	0.000000000000000E+000	0.000000000000000E+000	10.701	10.701	0.0000000E+000	0.000000000000000E+000	-0.0422932	2.33417
1	1	0	0	0	0	0	4026	10	-4.46866	10.0038	40.2741	40.2741	0	11.1872	11	-6.80273	0.0261101	0.000000000000000E+000	7.50716e+07	0.000000000000000E+000	0.000000000000000E+000	11.1872	11.1872	0.0000000E+000	0.000000000000000E+000	-0.0447034	2.33407
1	1	0	0	0	0	0	4201	10	-4.59287	10.004	42.0247	42.0247	0	11.6735	11	-6.9277	0.0283136	0.000000000000000E+000	6.36076e+07	0.000000000000000E+000	0.000000000000000E+000	11.6735	11.6735	0.0000000E+000	0.000000000000000E+000	-0.0459469	2.33483
1	1	0	0	0	0	0	4376	10	-4.67028	10.0045	43.7753	43.7753	0	12.1598	11	-7.0104	0.0305735	0.000000000000000E+000	5.93085e+07	0.000000000000000E+000	0.000000000000000E+000	12.1598	12.1598	0.0000000E+000	0.000000000000000E+000	-0.046724	2.34012
1	1	0	0	0	0	0	4551	10	-4.74092	10.0029	45.526	45.526	0	12.6461	11	-7.0846	0.0328655	0.000000000000000E+000	5.62929e+07	0.000000000000000E+000	0.000000000000000E+000	12.6461	12.6461	0.0000000E+000	0.000000000000000E+000	-0.0474228	2.34368
1	1	0	0	0	0	0	4726	10	-4.788	10.0038	47.2766	47.2766	0	13.1324	11	-7.13352	0.0351814	0.000000000000000E+000	5.52419e+07	0.000000000000000E+000	0.000000000000000E+000	13.1324	13.1324	0.0000000E+000	0.000000000000000E+000	-0.0478983	2.34553
1	1	0	0	0	0	0	4901	10	-4.83098	10.0033	49.0273	49.0273	0	13.6187	11	-7.17539	0.037521	0.000000000000000E+000	5.4548e+07	0.000000000000000E+000	0.000000000000000E+000	13.6187	13.6187	0.0000000E+000	0.000000000000000E+000	-0.0483258	2.34441
1	1	0	0	0	0	0	5076	10	1.21183	10.0034	50.7779	50.7779	0	14.105	11	-1.14927	0.0392935	0.000000000000000E+000	9.87125e+06	0.000000000000000E+000	0.000000000000000E+000	14.105	14.105	0.0000000E+000	0.000000000000000E+000	0.0121225	2.36111
1	1	0	0	0	0	0	5251	10	1.21726	10.0033	52.5286	52.5286	0	14.5913	11	-1.15293	0.039883	0.000000000000000E+000	1.02008e+07	0.000000000000000E+000	0.000000000000000E+000	14.5913	14.5913	0.0000000E+000	0.000000000000000E+000	0.0121767	2.37019
1	1	0	0	0	0	0	5426	10	1.21342	10.0039	54.2792	54.2792	0	15.0776	11	-1.15289	0.040472	0.000000000000000E+000	1.05486e+07	0.000000000000000E+000	0.000000000000000E+000	15.0776	15.0776	0.0000000E+000	0.000000000000000E+000	0.0121389	2.36631
1	1	0	0	0	0	0	5601	10	1.21543	10.0031	56.0298	56.0298	0	15.5638	11	-1.15298	0.041063	0.000000000000000E+000	1.08846e+07	0.000000000000000E+000	0.000000000000000E+000	15.5638	15.5638	0.0000000E+000	0.000000000000000E+000	0.012158	2.3684
1	1	0	0	0	0	0	5776	10	1.21758	10.0033	57.7805	57.7805	0	16.0501	11	-1.15513	0.0416549	0.000000000000000E+000	1.122e+07	0.000000000000000E+000	0.000000000000000E+000	16.0501	16.0501	0.0000000E+000	0.000000000000000E+000	0.0121799	2.37271
1	1	0	0	0	0	0	5951	10	1.22007	10.0034	59.5311	59.5311	0	16.5364	11	-1.15359	0.0422474	0.000000000000000E+000	1.15544e+07	0.000000000000000E+000	0.000000000000000E+000	16.5364	16.5364	0.0000000E+000	0.000000000000000E+000	0.0122048	2.37366
1	1	0	0	0	0	0	6126	10	1.21969	10.0044	61.2818	61.2818	0	17.0227	11	-1.15301	0.0428408	0.000000000000000E+000	1.1895e+07	0.000000000000000E+000	0.000000000000000E+000	17.0227	17.0227	0.0000000E+000	0.000000000000000E+000	0.0122022	2.37269
1	1	0	0	0	0	0	6301	10	1.22086	10.003	63.0324	63.0324	0	17.509	11	-1.1543	0.0434352	0.000000000000000E+000	1.22321e+07	0.000000000000000E+000	0.000000000000000E+000	17.509	17.509	0.0000000E+000	0.000000000000000E+000	0.0122122	2.37516
1	1	0	0	0	0	0	6476	10	1.2922	10.0035	64.783	64.783	0	17.9953	11	-1.15396	0.0440431	0.000000000000000E+000	1.24001e+07	0.000000000000000E+000	0.000000000000000E+000	17.9953	17.9953	0.0000000E+000	0.000000000000000E+000	0.0129266	2.44616
1	1	0	0	0	0	0	6651	10	1.29626	10.0028	66.5337	66.5337	0	18.4816	11	-1.15645	0.0446724	0.000000000000000E+000	1.27253e+07	0.000000000000000E+000	0.000000000000000E+000	18.4816	18.4816	0.0000000E+000	0.000000000000000E+000	0.0129662	2.45271
1	1	0	0	0	0	0	6826	10	1.29878	10.003	68.2843	68.2843	0	18.9679	11	-1.15499	0.0453032	0.000000000000000E+000	1.30539e+07	0.000000000000000E+000	0.000000000000000E+000	18.9679	18.9679	0.0000000E+000	0.000000000000000E+000	0.0129917	2.45378
1	1	0	0	0	0	0	7001	10	1.30073	10.0043	70.0349	70.0349	0	19.4542	11	-1.15486	0.0459354	0.000000000000000E+000	1.33835e+07	0.000000000000000E+000	0.000000000000000E+000	19.4542	19.4542	0.0000000E+000	0.000000000000000E+000	0.0130129	2.45559
1	1	0	0	0	0	0	7176	10	1.30209	10.0033	71.7856	71.7856	0	19.9404	11	-1.15635	0.0465683	0.000000000000000E+000	1.37145e+07	0.000000000000000E+000	0.000000000000000E+000	19.9404	19.9404	0.0000000E+000	0.000000000000000E+000	0.0130251	2.45844
1	1	0	0	0	0	0	7309.55	10	5.45782	10.0036	73.1215	73.1215	1	0.000000000000000E+000	11	2.50149	0.0470515	0.000000000000000E+000	1.39456e+07	0.000000000000000E+000	0.000000000000000E+000	0.000000000000000E+000	0.000000000000000E+000	0.0000000E+000	0.000000000000000E+000	0.0545981	2.95633