File: Lares Oxides/2024-6-18 Ni33Co33Fe33Ox on FTO_1_07mg_03_CP_C05.mpt
EC-Lab ASCII FILE
Nb header lines : 54

Chronopotentiometry

Run on channel : 5 (SN 39658)
User :
CE vs. WE compliance from -10 V to 10 V
Electrode connection : standard
Potential control : Ewe
Ewe ctrl range : min = -2.50 V, max = 2.50 V
Safety Limits :
	Do not start on E overload
Acquisition started on : 06/18/2024 16:38:11.272
Technique started on : 06/18/2024 16:48:51.460
Loaded Setting File :  NONE
Saved on :
	File : 2024-6-18 Ni33Co33Fe33Ox on FTO_1_07mg_03_CP_C05.mpr
	Directory : C:\Users\sfolkman\OneDrive - New Mexico State University\Folkman Group Folder\Scott\
	Host : 172.24.124.15
Device : VSP (SN 1910)
Address : USB
EC-Lab for windows v11.46 (software)
Internet server v11.40 (firmware)
Command interpretor v11.40 (firmware)
Electrode material :
Initial state :
Electrolyte :
Comments :
Current amplifier : VSPB-4A
Electrode surface area : 0.001 cm²
Characteristic mass : 0.001 g
Equivalent Weight : 0.000 g/eq.
Density : 0.000 g/cm3
Volume (V) : 0.001 cm³
Cycle Definition : Charge/Discharge alternance
Is                  10.000
unit Is             mA
vs.                 <None>
ts (h:m:s)          48:00:0.0000
EM (V)              2.000
dQM                 480.000
unit dQM            mA.h
record              <Ewe>
dEs (mV)            0.00
dts (s)             2.0000
E range min (V)     -2.500
E range max (V)     2.500
I Range             10 mA
Bandwidth           4
goto Ns'            0
nc cycles           0

mode	ox/red	error	control changes	Ns changes	counter inc.	Ns	time/s	control/mA	<Ewe>/V	I/mA	dQ/C	(Q-Qo)/C	half cycle	Q charge/discharge/mA.h	I Range	Energy charge/W.h	Energy discharge/W.h	Capacitance charge/µF	Capacitance discharge/µF	Q discharge/mA.h	Q charge/mA.h	Capacity/mA.h	Efficiency/%	cycle number	P/W
1	1	0	1	0	0	0	640.188	10	0.918903	9.99644	0.0189725	0.0189725	0	0.00527015	11	4.84275e-06	0.000000000000000E+000	0.000000000000000E+000	0.000000000000000E+000	0.000000000000000E+000	0.00527015	0.00527015	0.0000000E+000	0.000000000000000E+000	0.00918575
1	1	0	1	0	0	0	686.188	10	0.933267	9.99656	0.478792	0.478792	0	0.132998	11	0.000123748	0.000000000000000E+000	3.33314e+07	0.000000000000000E+000	0.000000000000000E+000	0.132998	0.132998	0.0000000E+000	0.000000000000000E+000	0.00932946
1	1	0	1	0	0	0	732.188	10	0.938616	9.99536	0.938611	0.938611	0	0.260725	11	0.000243406	0.000000000000000E+000	4.76122e+07	0.000000000000000E+000	0.000000000000000E+000	0.260725	0.260725	0.0000000E+000	0.000000000000000E+000	0.0093818
1	1	0	1	0	0	0	778.188	10	0.943522	9.9958	1.39843	1.39843	0	0.388452	11	0.000363675	0.000000000000000E+000	5.68028e+07	0.000000000000000E+000	0.000000000000000E+000	0.388452	0.388452	0.0000000E+000	0.000000000000000E+000	0.00943125
1	1	0	1	0	0	0	824.188	10	0.946597	9.99606	1.85824	1.85824	0	0.516179	11	0.000484421	0.000000000000000E+000	6.70986e+07	0.000000000000000E+000	0.000000000000000E+000	0.516179	0.516179	0.0000000E+000	0.000000000000000E+000	0.00946223
1	1	0	1	0	0	0	870.188	10	0.949976	9.99516	2.31806	2.31806	0	0.643906	11	0.000605546	0.000000000000000E+000	7.4599e+07	0.000000000000000E+000	0.000000000000000E+000	0.643906	0.643906	0.0000000E+000	0.000000000000000E+000	0.00949517
1	1	0	1	0	0	0	916.188	10	0.952994	9.9958	2.77788	2.77788	0	0.771632	11	0.00072707	0.000000000000000E+000	8.14842e+07	0.000000000000000E+000	0.000000000000000E+000	0.771632	0.771632	0.0000000E+000	0.000000000000000E+000	0.00952593
1	1	0	1	0	0	0	962.188	10	0.954715	9.99637	3.23769	3.23769	0	0.899358	11	0.000848893	0.000000000000000E+000	9.04074e+07	0.000000000000000E+000	0.000000000000000E+000	0.899358	0.899358	0.0000000E+000	0.000000000000000E+000	0.00954368
1	1	0	1	0	0	0	1008.19	10	0.956921	9.99637	3.6975	3.6975	0	1.02708	11	0.000970985	0.000000000000000E+000	9.72545e+07	0.000000000000000E+000	0.000000000000000E+000	1.02708	1.02708	0.0000000E+000	0.000000000000000E+000	0.00956574
1	1	0	1	0	0	0	1054.19	10	0.958107	9.99618	4.15731	4.15731	0	1.15481	11	0.00109329	0.000000000000000E+000	1.06042e+08	0.000000000000000E+000	0.000000000000000E+000	1.15481	1.15481	0.0000000E+000	0.000000000000000E+000	0.00957741
1	1	0	1	0	0	0	1100.19	10	0.959402	9.99593	4.61713	4.61713	0	1.28254	11	0.00121578	0.000000000000000E+000	1.14004e+08	0.000000000000000E+000	0.000000000000000E+000	1.28254	1.28254	0.0000000E+000	0.000000000000000E+000	0.00959012
1	1	0	1	0	0	0	1146.19	10	0.960858	9.99561	5.07694	5.07694	0	1.41026	11	0.00133845	0.000000000000000E+000	1.21009e+08	0.000000000000000E+000	0.000000000000000E+000	1.41026	1.41026	0.0000000E+000	0.000000000000000E+000	0.00960436
1	1	0	1	0	0	0	1192.19	10	0.962032	9.99631	5.53675	5.53675	0	1.53799	11	0.00146127	0.000000000000000E+000	1.28374e+08	0.000000000000000E+000	0.000000000000000E+000	1.53799	1.53799	0.0000000E+000	0.000000000000000E+000	0.00961677
1	1	0	1	0	0	0	1238.19	10	0.96352	9.99574	5.99657	5.99657	0	1.66571	11	0.00158422	0.000000000000000E+000	1.34401e+08	0.000000000000000E+000	0.000000000000000E+000	1.66571	1.66571	0.0000000E+000	0.000000000000000E+000	0.00963109
1	1	0	1	0	0	0	1284.19	10	0.964358	9.99536	6.45638	6.45638	0	1.79344	11	0.00170729	0.000000000000000E+000	1.42038e+08	0.000000000000000E+000	0.000000000000000E+000	1.79344	1.79344	0.0000000E+000	0.000000000000000E+000	0.0096391
1	1	0	1	0	0	0	1330.19	10	0.96507	9.99529	6.91619	6.91619	0	1.92116	11	0.00183048	0.000000000000000E+000	1.49805e+08	0.000000000000000E+000	0.000000000000000E+000	1.92116	1.92116	0.0000000E+000	0.000000000000000E+000	0.00964616
1	1	0	1	0	0	0	1376.19	10	0.966095	9.9965	7.376	7.376	0	2.04889	11	0.0019538	0.000000000000000E+000	1.56297e+08	0.000000000000000E+000	0.000000000000000E+000	2.04889	2.04889	0.0000000E+000	0.000000000000000E+000	0.00965757
1	1	0	1	0	0	0	1422.19	10	0.967512	9.99631	7.83582	7.83582	0	2.17662	11	0.0020773	0.000000000000000E+000	1.612e+08	0.000000000000000E+000	0.000000000000000E+000	2.17662	2.17662	0.0000000E+000	0.000000000000000E+000	0.00967155
1	1	0	1	0	0	0	1468.19	10	0.969093	9.99606	8.29563	8.29563	0	2.30434	11	0.00220097	0.000000000000000E+000	1.65283e+08	0.000000000000000E+000	0.000000000000000E+000	2.30434	2.30434	0.0000000E+000	0.000000000000000E+000	0.00968711
1	1	0	1	0	0	0	1514.19	10	0.970383	9.99516	8.75544	8.75544	0	2.43207	11	0.00232483	0.000000000000000E+000	1.70072e+08	0.000000000000000E+000	0.000000000000000E+000	2.43207	2.43207	0.0000000E+000	0.000000000000000E+000	0.00969914
1	1	0	1	0	0	0	1560.19	10	0.970914	9.9958	9.21525	9.21525	0	2.55979	11	0.0024488	0.000000000000000E+000	1.77177e+08	0.000000000000000E+000	0.000000000000000E+000	2.55979	2.55979	0.0000000E+000	0.000000000000000E+000	0.00970506
1	1	0	1	0	0	0	1606.19	10	0.972125	9.99561	9.67506	9.67506	0	2.68752	11	0.00257289	0.000000000000000E+000	1.81786e+08	0.000000000000000E+000	0.000000000000000E+000	2.68752	2.68752	0.0000000E+000	0.000000000000000E+000	0.00971698
1	1	0	1	0	0	0	1652.19	10	0.972863	9.99504	10.1349	10.1349	0	2.81524	11	0.0026971	0.000000000000000E+000	1.87821e+08	0.000000000000000E+000	0.000000000000000E+000	2.81524	2.81524	0.0000000E+000	0.000000000000000E+000	0.0097238
1	1	0	1	0	0	0	1698.19	10	0.974045	9.9951	10.5947	10.5947	0	2.94297	11	0.00282143	0.000000000000000E+000	1.92132e+08	0.000000000000000E+000	0.000000000000000E+000	2.94297	2.94297	0.0000000E+000	0.000000000000000E+000	0.00973568
1	1	0	1	0	0	0	1744.19	10	0.974874	9.99644	11.0545	11.0545	0	3.07069	11	0.00294591	0.000000000000000E+000	1.97501e+08	0.000000000000000E+000	0.000000000000000E+000	3.07069	3.07069	0.0000000E+000	0.000000000000000E+000	0.00974527
1	1	0	1	0	0	0	1790.19	10	0.975874	9.99618	11.5143	11.5143	0	3.19842	11	0.0030705	0.000000000000000E+000	2.02105e+08	0.000000000000000E+000	0.000000000000000E+000	3.19842	3.19842	0.0000000E+000	0.000000000000000E+000	0.00975502
1	1	0	1	0	0	0	1836.19	10	0.976572	9.99644	11.9741	11.9741	0	3.32614	11	0.00319518	0.000000000000000E+000	2.07634e+08	0.000000000000000E+000	0.000000000000000E+000	3.32614	3.32614	0.0000000E+000	0.000000000000000E+000	0.00976224
1	1	0	1	0	0	0	1882.19	10	0.977583	9.99574	12.4339	12.4339	0	3.45387	11	0.00331996	0.000000000000000E+000	2.11892e+08	0.000000000000000E+000	0.000000000000000E+000	3.45387	3.45387	0.0000000E+000	0.000000000000000E+000	0.00977166
1	1	0	1	0	0	0	1928.19	10	0.978645	9.99593	12.8937	12.8937	0	3.58159	11	0.00344488	0.000000000000000E+000	2.15821e+08	0.000000000000000E+000	0.000000000000000E+000	3.58159	3.58159	0.0000000E+000	0.000000000000000E+000	0.00978247
1	1	0	1	0	0	0	1974.19	10	0.979289	9.99682	13.3535	13.3535	0	3.70932	11	0.0035699	0.000000000000000E+000	2.21134e+08	0.000000000000000E+000	0.000000000000000E+000	3.70932	3.70932	0.0000000E+000	0.000000000000000E+000	0.00978978
1	1	0	1	0	0	0	2020.19	10	0.980457	9.99631	13.8134	13.8134	0	3.83704	11	0.00369503	0.000000000000000E+000	2.24408e+08	0.000000000000000E+000	0.000000000000000E+000	3.83704	3.83704	0.0000000E+000	0.000000000000000E+000	0.00980095
1	1	0	1	0	0	0	2066.19	10	0.980348	9.99593	14.2732	14.2732	0	3.96477	11	0.00382023	0.000000000000000E+000	2.3229e+08	0.000000000000000E+000	0.000000000000000E+000	3.96477	3.96477	0.0000000E+000	0.000000000000000E+000	0.00979949
1	1	0	1	0	0	0	2112.19	10	0.981457	9.99574	14.733	14.733	0	4.09249	11	0.00394553	0.000000000000000E+000	2.35524e+08	0.000000000000000E+000	0.000000000000000E+000	4.09249	4.09249	0.0000000E+000	0.000000000000000E+000	0.00981038
1	1	0	1	0	0	0	2158.19	10	0.98238	9.99485	15.1928	15.1928	0	4.22022	11	0.00407095	0.000000000000000E+000	2.39341e+08	0.000000000000000E+000	0.000000000000000E+000	4.22022	4.22022	0.0000000E+000	0.000000000000000E+000	0.00981874
1	1	0	1	0	0	0	2204.19	10	0.983187	9.99599	15.6526	15.6526	0	4.34795	11	0.00419648	0.000000000000000E+000	2.43491e+08	0.000000000000000E+000	0.000000000000000E+000	4.34795	4.34795	0.0000000E+000	0.000000000000000E+000	0.00982792
1	1	0	1	0	0	0	2250.19	10	0.98394	9.99529	16.1124	16.1124	0	4.47567	11	0.00432211	0.000000000000000E+000	2.47741e+08	0.000000000000000E+000	0.000000000000000E+000	4.47567	4.47567	0.0000000E+000	0.000000000000000E+000	0.00983477
1	1	0	1	0	0	0	2296.19	10	0.984786	9.99593	16.5722	16.5722	0	4.6034	11	0.00444785	0.000000000000000E+000	2.51538e+08	0.000000000000000E+000	0.000000000000000E+000	4.6034	4.6034	0.0000000E+000	0.000000000000000E+000	0.00984385
1	1	0	1	0	0	0	2342.19	10	0.986001	9.99536	17.032	17.032	0	4.73112	11	0.00457372	0.000000000000000E+000	2.53838e+08	0.000000000000000E+000	0.000000000000000E+000	4.73112	4.73112	0.0000000E+000	0.000000000000000E+000	0.00985543
1	1	0	1	0	0	0	2388.19	10	0.987759	9.99625	17.4919	17.4919	0	4.85885	11	0.00469971	0.000000000000000E+000	2.54033e+08	0.000000000000000E+000	0.000000000000000E+000	4.85885	4.85885	0.0000000E+000	0.000000000000000E+000	0.00987388
1	1	0	1	0	0	0	2434.19	10	0.98828	9.99599	17.9517	17.9517	0	4.98657	11	0.0048259	0.000000000000000E+000	2.58754e+08	0.000000000000000E+000	0.000000000000000E+000	4.98657	4.98657	0.0000000E+000	0.000000000000000E+000	0.00987884
1	1	0	1	0	0	0	2480.19	10	0.989186	9.99498	18.4115	18.4115	0	5.1143	11	0.0049522	0.000000000000000E+000	2.61962e+08	0.000000000000000E+000	0.000000000000000E+000	5.1143	5.1143	0.0000000E+000	0.000000000000000E+000	0.00988689
1	1	0	1	0	0	0	2526.19	10	0.991368	9.99618	18.8713	18.8713	0	5.24202	11	0.00507874	0.000000000000000E+000	2.60419e+08	0.000000000000000E+000	0.000000000000000E+000	5.24202	5.24202	0.0000000E+000	0.000000000000000E+000	0.00990989
1	1	0	1	0	0	0	2572.19	10	0.991936	9.99586	19.3311	19.3311	0	5.36975	11	0.0052054	0.000000000000000E+000	2.64689e+08	0.000000000000000E+000	0.000000000000000E+000	5.36975	5.36975	0.0000000E+000	0.000000000000000E+000	0.00991525
1	1	0	1	0	0	0	2604.49	10	2.50168	9.99586	19.654	19.654	0	5.45944	11	0.00529441	0.000000000000000E+000	1.24175e+07	0.000000000000000E+000	0.000000000000000E+000	5.45944	5.45944	0.0000000E+000	0.000000000000000E+000	0.0250064