File: Lares Oxides/2024-6-21 NiOx on FTO_2_50mg_02_CV_C05.mpt
EC-Lab ASCII FILE
Nb header lines : 59

Cyclic Voltammetry

Run on channel : 5 (SN 39658)
User :
CE vs. WE compliance from -10 V to 10 V
Electrode connection : standard
Potential control : Ewe
Ewe ctrl range : min = -2.50 V, max = 2.50 V
Safety Limits :
	Do not start on E overload
Acquisition started on : 06/21/2024 11:53:45.401
Technique started on : 06/21/2024 12:00:09.817
Loaded Setting File :  NONE
Saved on :
	File : 2024-6-21 NiOx on FTO_2_50mg_02_CV_C05.mpr
	Directory : C:\Users\sfolkman\OneDrive - New Mexico State University\Folkman Group Folder\Scott\
	Host : 172.24.124.15
Device : VSP (SN 1910)
Address : USB
EC-Lab for windows v11.46 (software)
Internet server v11.40 (firmware)
Command interpretor v11.40 (firmware)
Electrode material :
Initial state :
Electrolyte :
Comments :
Current amplifier : VSPB-4A
Electrode surface area : 0.001 cm²
Characteristic mass : 0.001 g
Equivalent Weight : 0.000 g/eq.
Density : 0.000 g/cm3
Volume (V) : 0.001 cm³
Cycle Definition : Charge/Discharge alternance
Ei (V)              0.000
vs.                 Eoc
dE/dt               10.000
dE/dt unit          mV/s
E1 (V)              1.000
vs.                 Ref
Step percent        50
N                   10
E range min (V)     -2.500
E range max (V)     2.500
I Range             Auto
I Range min         Unset
I Range max         Unset
I Range init        Unset
Bandwidth           4
E2 (V)              0.000
vs.                 Ref
nc cycles           2
Reverse Scan        1
Ef (V)              0.000
vs.                 Eoc

mode	ox/red	error	control changes	counter inc.	time/s	control/V	Ewe/V	<I>/mA	cycle number	(Q-Qo)/C	I Range	P/W
2	1	0	1	0	384.416	0.247197	0.247898	0.00103766	1	0.0000000E+000	13	2.57233e-07
2	0	0	1	0	388.772	0.29076	0.291198	0.000616771	1	6.23991e-07	13	1.79603e-07
2	0	0	0	0	393.173	0.334774	0.335492	0.000680816	1	1.92161e-06	13	2.28408e-07
2	1	0	1	0	397.575	0.378787	0.379169	0.00035683	1	4.03202e-06	13	1.35299e-07
2	1	0	0	0	401.976	0.422801	0.423798	0.000685843	1	7.10197e-06	13	2.90659e-07
2	0	0	1	0	406.378	0.466814	0.467785	0.00131593	1	1.14569e-05	13	6.15571e-07
2	0	0	1	0	410.779	0.510828	0.511877	0.00218052	1	1.79209e-05	13	1.11616e-06
2	0	0	0	0	415.21	0.555142	0.555171	0.00353229	1	2.89883e-05	12	1.96102e-06
2	1	0	1	0	419.612	0.599156	0.59982	0.0218954	1	7.0101e-05	12	1.31333e-05
2	1	0	0	0	424.013	0.643169	0.643439	0.222628	1	0.000487169	12	0.000143248
2	1	0	1	0	428.414	0.687183	0.688007	0.738812	1	0.00251766	12	0.000508308
2	1	0	0	0	432.846	0.731496	0.731976	1.46328	1	0.0073316	11	0.00107109
2	1	0	0	0	437.247	0.77551	0.776051	2.3819	1	0.0157251	11	0.00184847
2	1	0	1	0	441.648	0.819524	0.820095	3.4864	1	0.0285873	11	0.00285918
2	1	0	0	0	446.05	0.863537	0.864121	4.62811	1	0.046493	11	0.00399924
2	1	0	1	0	450.451	0.907551	0.907941	5.35173	1	0.068711	11	0.00485905
2	1	0	0	0	454.853	0.951565	0.952194	5.0041	1	0.0920752	11	0.00476488
2	1	0	1	0	459.254	0.995577	0.995929	4.73003	1	0.112797	11	0.00471077
2	1	0	0	0	463.556	0.961468	0.962704	3.42813	1	0.130488	11	0.00330027
2	1	0	1	0	467.957	0.917455	0.918245	2.19619	1	0.142882	11	0.00201664
2	1	0	1	0	472.358	0.87344	0.874033	1.23261	1	0.150315	11	0.00107734
2	1	0	0	0	476.76	0.829427	0.830045	0.637289	1	0.154295	11	0.000528979
2	1	0	1	0	481.191	0.785113	0.786328	0.320922	1	0.156334	12	0.00025235
2	1	0	0	0	485.593	0.741099	0.741987	0.165641	1	0.157359	12	0.000122903
2	1	0	1	0	489.994	0.697086	0.69739	0.0863936	1	0.157892	12	6.025e-05
2	1	0	1	0	494.395	0.653073	0.653443	0.0430204	1	0.158165	12	2.81114e-05
2	1	0	0	0	498.797	0.609058	0.61008	0.0193729	1	0.158293	12	1.1819e-05
2	0	0	1	0	503.198	0.565045	0.565466	0.00430835	1	0.158341	12	2.43623e-06
2	1	0	0	0	507.599	0.521031	0.521394	-0.00409953	1	0.158339	12	-2.13747e-06
2	0	0	1	0	512.001	0.477018	0.477467	-0.0119409	1	0.1583	12	-5.7014e-06
2	0	0	0	0	516.402	0.433004	0.433896	-0.0199822	1	0.15823	12	-8.6702e-06
2	0	0	1	0	520.804	0.388991	0.389563	-0.0288837	1	0.158124	12	-1.1252e-05
2	0	0	1	0	525.205	0.344977	0.345691	-0.0383559	1	0.157976	12	-1.32593e-05
2	0	0	0	0	529.606	0.300963	0.301634	-0.0442941	1	0.15779	12	-1.33606e-05
2	0	0	1	0	534.008	0.256949	0.256883	-0.0385622	1	0.1576	12	-9.90598e-06
2	0	0	0	0	538.409	0.212936	0.213926	-0.0198961	1	0.157473	12	-4.25631e-06
2	0	0	1	0	542.81	0.168922	0.169386	-0.0121262	1	0.157405	12	-2.054e-06
2	0	0	1	0	547.212	0.124908	0.125546	-0.00917352	1	0.157359	12	-1.15169e-06
2	0	0	0	0	551.613	0.0808949	0.0812797	-0.00760702	1	0.157323	12	-6.18296e-07
2	0	0	1	0	556.014	0.0368813	0.0371752	-0.00619745	1	0.157293	12	-2.30391e-07
2	0	0	0	1	560.256	0.00557161	0.00636503	-0.00475486	1	0.157268	12	-3.02648e-08
2	0	0	1	1	564.658	0.0495852	0.0501841	-0.0038555	1	0.157249	12	-1.93485e-07
2	0	0	0	1	569.059	0.0935989	0.0943704	-0.00282328	1	0.157236	12	-2.66434e-07
2	1	0	1	1	573.46	0.137612	0.138367	-0.00242936	1	0.157226	12	-3.36145e-07
2	0	0	1	1	577.862	0.181626	0.181854	-0.00141359	1	0.157219	12	-2.57067e-07
2	1	0	0	1	582.263	0.22564	0.225853	-0.000649275	1	0.157214	12	-1.46641e-07
2	0	0	1	1	586.564	0.268653	0.269678	-0.000639171	2	0.15721	12	-1.7237e-07
2	0	0	0	1	590.966	0.312667	0.31292	-0.000422012	2	0.157208	12	-1.32056e-07
2	0	0	1	1	595.367	0.356681	0.357038	-0.000143747	2	0.157207	12	-5.13233e-08
2	1	0	1	1	599.768	0.400694	0.401535	0.000586481	2	0.157207	12	2.35493e-07
2	1	0	0	1	604.17	0.444708	0.444893	0.000662123	2	0.157208	12	2.94573e-07
2	0	0	1	1	608.571	0.488721	0.488736	0.000893504	2	0.157211	12	4.36688e-07
2	1	0	0	1	612.973	0.532735	0.532955	0.00319395	2	0.15722	12	1.70223e-06
2	0	0	1	1	617.374	0.576749	0.577275	0.00734899	2	0.157243	12	4.24239e-06
2	1	0	1	1	621.775	0.620763	0.621065	0.0202131	2	0.157304	12	1.25536e-05
2	1	0	0	1	626.177	0.664776	0.665869	0.0462146	2	0.157446	12	3.07729e-05
2	1	0	1	1	630.578	0.708789	0.709248	0.102988	2	0.157761	12	7.30438e-05
2	1	0	0	1	634.979	0.752803	0.753826	0.221342	2	0.158444	12	0.000166853
2	1	0	1	1	639.381	0.796817	0.797434	0.502311	2	0.159949	12	0.00040056
2	1	0	0	1	643.812	0.84113	0.841603	1.12373	2	0.163403	11	0.000945736
2	1	0	1	1	648.214	0.885145	0.88518	2.13274	2	0.170453	11	0.00188786
2	1	0	1	1	652.615	0.929158	0.929988	3.40671	2	0.182564	11	0.0031682
2	1	0	0	1	657.016	0.973171	0.973422	4.93264	2	0.200811	11	0.00480154
2	1	0	1	1	661.258	0.984475	0.985153	5.19672	2	0.224101	11	0.00511956
2	1	0	0	1	665.659	0.940461	0.941125	3.27007	2	0.242591	11	0.00307754
2	1	0	1	1	670.061	0.896448	0.896918	1.86204	2	0.25371	11	0.0016701
2	1	0	0	1	674.462	0.852434	0.852859	0.94437	2	0.259728	11	0.000805414
2	1	0	1	1	678.864	0.80842	0.808969	0.439366	2	0.262648	11	0.000355434
2	1	0	1	1	683.295	0.764107	0.765183	0.209295	2	0.264014	12	0.000160149
2	1	0	0	1	687.696	0.720093	0.721049	0.100817	2	0.264667	12	7.26942e-05
2	1	0	1	1	692.098	0.676079	0.676813	0.0444582	2	0.264975	12	3.00898e-05
2	1	0	0	1	696.499	0.632066	0.632667	0.0165118	2	0.265101	12	1.04465e-05
2	1	0	1	1	700.9	0.588052	0.588547	0.00318407	2	0.265142	12	1.87397e-06
2	1	0	1	1	705.302	0.544038	0.544736	-0.000877489	2	0.265147	12	-4.78001e-07
2	1	0	0	1	709.703	0.500025	0.500662	-0.00487208	2	0.26513	12	-2.43926e-06
2	0	0	1	1	714.104	0.456011	0.456764	-0.00872728	2	0.265095	12	-3.98631e-06
2	0	0	0	1	718.506	0.411998	0.412118	-0.0136521	2	0.265044	12	-5.62627e-06
2	1	0	1	1	722.907	0.367984	0.36818	-0.0194584	2	0.264972	12	-7.1642e-06
2	0	0	0	1	727.309	0.32397	0.324637	-0.025243	2	0.264876	12	-8.19481e-06
2	0	0	0	1	731.71	0.279957	0.280727	-0.0291834	2	0.264756	12	-8.19258e-06
2	0	0	1	1	736.111	0.235943	0.236784	-0.0262948	2	0.26463	12	-6.22619e-06
2	0	0	0	1	740.513	0.191929	0.192401	-0.0172791	2	0.264534	12	-3.32451e-06
2	0	0	1	1	744.914	0.147916	0.148549	-0.010466	2	0.264475	12	-1.55472e-06
2	0	0	0	1	749.315	0.103902	0.104623	-0.00755981	2	0.264435	12	-7.9093e-07
2	1	0	1	1	753.717	0.0598891	0.0606395	-0.00593606	2	0.264405	12	-3.59959e-07
2	1	0	1	1	758.118	0.0158748	0.01596	-0.00506235	2	0.264381	12	-8.0795e-08
2	0	0	0	0	762.36	0.0265781	0.0270582	-0.00348876	2	0.264363	12	-9.43997e-08
2	0	0	1	0	766.761	0.0705918	0.0707808	-0.00283838	2	0.26435	12	-2.00903e-07
2	0	0	0	0	771.163	0.114605	0.114719	-0.00181092	2	0.264341	12	-2.07746e-07
2	1	0	1	0	775.564	0.158619	0.1591	-0.00111339	2	0.264334	12	-1.77141e-07
2	1	0	0	0	779.965	0.202633	0.203394	-0.000628169	2	0.26433	12	-1.27766e-07
2	0	0	0	0	784.362	0.246596	0.247242	-0.000747366	2	0.264326	12	-1.84781e-07
2	0	0	1	0	788.668	0.28966	0.290014	-0.000145565	3	0.264325	12	-4.2216e-08
2	0	0	0	0	793.069	0.333673	0.334521	0.000194109	3	0.264324	12	6.49335e-08
2	1	0	1	0	797.471	0.377687	0.378094	5.73274e-05	3	0.264324	12	2.16751e-08
2	1	0	0	0	801.872	0.421701	0.422137	0.000151957	3	0.264324	12	6.41465e-08
2	0	0	0	0	806.273	0.465714	0.465734	0.000674433	3	0.264326	12	3.14107e-07
2	0	0	1	0	810.675	0.509728	0.510521	0.00137871	3	0.264331	12	7.03861e-07
2	0	0	0	0	815.076	0.553741	0.553659	0.00323519	3	0.264342	12	1.79119e-06
2	1	0	1	0	819.478	0.597755	0.598224	0.00812565	3	0.264367	12	4.86096e-06
2	1	0	0	0	823.879	0.641769	0.642883	0.0197722	3	0.264424	12	1.27112e-05
2	1	0	1	0	828.28	0.685782	0.686328	0.0500796	3	0.264568	12	3.4371e-05
2	1	0	1	0	832.682	0.729796	0.730106	0.125094	3	0.264935	12	9.1332e-05
2	1	0	0	0	837.083	0.77381	0.77455	0.314877	3	0.265845	12	0.000243888
2	1	0	1	0	841.484	0.817823	0.817973	0.785352	3	0.268126	12	0.000642397
2	1	0	0	0	845.916	0.862137	0.862838	1.70286	3	0.273475	11	0.00146929
2	1	0	1	0	850.317	0.906151	0.906797	3.01387	3	0.283752	11	0.00273297
2	1	0	1	0	854.719	0.950164	0.950592	4.52288	3	0.300312	11	0.00429942
2	1	0	0	0	859.12	0.994178	0.994631	6.12659	3	0.323745	11	0.0060937
2	1	0	1	0	863.362	0.963467	0.964299	4.54954	3	0.347255	11	0.00438712
2	1	0	0	0	867.763	0.919455	0.919787	2.9029	3	0.363437	11	0.00267005
2	1	0	1	0	872.164	0.875441	0.875946	1.79235	3	0.37383	11	0.00157001
2	1	0	0	0	876.566	0.831427	0.831735	0.935611	3	0.37965	11	0.00077818
2	1	0	1	0	880.982	0.787264	0.787713	0.448916	3	0.382572	11	0.000353617
2	1	0	0	0	885.399	0.7431	0.743379	0.206514	3	0.383939	12	0.000153518
2	1	0	1	0	889.8	0.699086	0.699166	0.0888892	3	0.384558	12	6.21483e-05
2	1	0	1	0	894.201	0.655073	0.655847	0.0299591	3	0.384798	12	1.96486e-05
2	0	0	0	0	898.603	0.611059	0.611545	0.00791275	3	0.384868	12	4.839e-06
2	1	0	1	0	903.004	0.567046	0.567399	0.000192829	3	0.384882	12	1.09411e-07
2	0	0	0	0	907.405	0.523032	0.523407	-0.00344411	3	0.384876	12	-1.80267e-06
2	1	0	1	0	911.807	0.479019	0.479552	-0.00553614	3	0.384856	12	-2.65487e-06
2	0	0	1	0	916.208	0.435005	0.435566	-0.00852687	3	0.384823	12	-3.71401e-06
2	1	0	0	0	920.609	0.390991	0.392032	-0.0122752	3	0.384777	12	-4.81228e-06
2	0	0	1	0	925.011	0.346977	0.347248	-0.0168105	3	0.384713	12	-5.8374e-06
2	0	0	0	0	929.412	0.302964	0.303227	-0.0213255	3	0.384628	12	-6.46647e-06
2	0	0	1	0	933.814	0.25895	0.259948	-0.0261287	3	0.384522	12	-6.7921e-06
2	0	0	1	0	938.215	0.214936	0.215364	-0.0243814	3	0.384408	12	-5.25087e-06
2	0	0	0	0	942.616	0.170923	0.171188	-0.0149667	3	0.384322	12	-2.56213e-06
2	0	0	1	0	947.018	0.126909	0.127494	-0.00978376	3	0.384269	12	-1.24737e-06
2	0	0	0	0	951.419	0.0828956	0.0834843	-0.00731095	3	0.384232	12	-6.1035e-07
2	0	0	1	0	955.82	0.0388819	0.0389204	-0.00596726	3	0.384203	12	-2.32248e-07
2	0	0	0	1	960.062	0.00357099	0.00411376	-0.00506	3	0.384181	12	-2.08156e-08
2	0	0	1	1	964.464	0.0475837	0.0486601	-0.00324287	3	0.384165	12	-1.57799e-07
2	0	0	1	1	968.865	0.0915983	0.0919515	-0.00202778	3	0.384154	12	-1.86458e-07
2	0	0	0	1	973.266	0.135612	0.136226	-0.00134691	3	0.384146	12	-1.83483e-07
2	1	0	1	1	977.668	0.179626	0.180511	-0.00143965	3	0.384141	12	-2.59872e-07
2	1	0	0	1	982.069	0.223639	0.22441	-0.00105972	3	0.384137	12	-2.37813e-07
2	1	0	0	1	984.404	0.246996	0.247577	-0.00329894	3	0.384135	12	-8.1674e-07