File: Lares Oxides/2024-6-18 Ni33Co33Fe33Ox on FTO_1_07mg_01_PEIS_C05.mpt
EC-Lab ASCII FILE
Nb header lines : 65

Potentio Electrochemical Impedance Spectroscopy

Run on channel : 5 (SN 39658)
User :
CE vs. WE compliance from -10 V to 10 V
Electrode connection : standard
Potential control : Ewe
Ewe ctrl range : min = -2.50 V, max = 2.50 V
Safety Limits :
	Do not start on E overload
Acquisition started on : 06/18/2024 16:38:11.272
Technique started on : 06/18/2024 16:38:12.810
Loaded Setting File :  NONE
Saved on :
	File : 2024-6-18 Ni33Co33Fe33Ox on FTO_1_07mg_01_PEIS_C05.mpr
	Directory : C:\Users\sfolkman\OneDrive - New Mexico State University\Folkman Group Folder\Scott\
	Host : 172.24.124.15
Device : VSP (SN 1910)
Address : USB
EC-Lab for windows v11.46 (software)
Internet server v11.40 (firmware)
Command interpretor v11.40 (firmware)
Electrode material :
Initial state :
Electrolyte :
Comments :
Current amplifier : VSPB-4A
Electrode surface area : 0.001 cm²
Characteristic mass : 0.001 g
Equivalent Weight : 0.000 g/eq.
Density : 0.000 g/cm3
Volume (V) : 0.001 cm³
Cycle Definition : Charge/Discharge alternance
Mode                Single sine
E (V)               0.0000
vs.                 Eoc
tE (h:m:s)          0:00:0.0000
record              0
dI                  0.000
unit dI             mA
dt (s)              0.000
fi                  200.000
unit fi             kHz
ff                  100.000
unit ff             mHz
Nd                  6
Points              per decade
spacing             Logarithmic
Va (mV)             10.0
pw                  0.10
Na                  2
corr                0
E range min (V)     -2.500
E range max (V)     2.500
I Range             Auto
Bandwidth           4
nc cycles           0
goto Ns'            0
nr cycles           0
inc. cycle          0

freq/Hz	Re(Z)/Ohm	-Im(Z)/Ohm	|Z|/Ohm	Phase(Z)/deg	time/s	<Ewe>/V	<I>/mA	Cs/µF	Cp/µF	cycle number	I Range	|Ewe|/V	|I|/A	Ns	(Q-Qo)/mA.h	Re(Y)/Ohm-1	Im(Y)/Ohm-1	|Y|/Ohm-1	Phase(Y)/deg	Re(C)/nF	Im(C)/nF	|C|/nF	Phase(C)/deg	Re(M)	Im(M)	|M|	Phase(M)/deg	Re(Permittivity)	Im(Permittivity)	|Permittivity|	Phase(Permittivity)/deg	Re(Resistivity)/Ohm.cm	Im(Resistivity)/Ohm.cm	|Resistivity|/Ohm.cm	Phase(Resistivity)/deg	Re(Conductivity)/mS/cm	Im(Conductivity)/mS/cm	|Conductivity|/mS/cm	Phase(Conductivity)/deg	Tan(Delta)	Loss Angle(Delta)/deg	dq/mA.h
199998	9.48079	15.4532	18.1298	-58.4703	1.53848	-0.0593509	-0.0126542	0.0514961	0.0374136	1	10	0.00907579	0.000500602	0	-3.87779e-06	0.0288444	0.0470149	0.0551579	58.4703	37.4136	22.9538	43.8937	-31.5297	0.0000000E+000	0.0000000E+000	0.0000000E+000	31.5297	0.0000000E+000	0.0000000E+000	0.0000000E+000	-31.5297	0.0000000E+000	0.0000000E+000	0.0000000E+000	-58.4703	0.0000000E+000	0.0000000E+000	0.0000000E+000	58.4703	0.613515	58.4703	-3.87779e-06
91291.2	17.1396	8.85573	19.2922	-27.3246	2.7285	-0.0592636	-0.012483	0.196864	0.0414813	1	10	0.0101254	0.000524846	0	-1.12147e-07	0.0460507	0.0237936	0.0518344	27.3246	41.4813	80.2838	90.3669	-62.6754	0.0000000E+000	0.0000000E+000	0.0000000E+000	62.6754	0.0000000E+000	0.0000000E+000	0.0000000E+000	-62.6754	0.0000000E+000	0.0000000E+000	0.0000000E+000	-27.3246	0.0000000E+000	0.0000000E+000	0.0000000E+000	27.3246	1.93542	27.3246	-1.60576e-06
41669.8	16.8093	2.92122	17.0612	-9.85873	3.62049	-0.0592607	-0.0126449	1.30748	0.0383303	1	10	0.0104998	0.000615419	0	-1.05398e-05	0.0577469	0.0100356	0.0586124	9.85873	38.3303	220.56	223.866	-80.1413	0.0000000E+000	0.0000000E+000	0.0000000E+000	80.1413	0.0000000E+000	0.0000000E+000	0.0000000E+000	-80.1413	0.0000000E+000	0.0000000E+000	0.0000000E+000	-9.85873	0.0000000E+000	0.0000000E+000	0.0000000E+000	9.85873	5.75421	9.85873	-4.21435e-06
19020.9	16.0901	2.19012	16.2385	-7.75123	4.5125	-0.0592518	-0.0126561	3.8205	0.0694969	1	10	0.0103234	0.000635737	0	-8.12713e-06	0.0610194	0.00830572	0.0615821	7.75123	69.4969	510.571	515.279	-82.2488	0.0000000E+000	0.0000000E+000	0.0000000E+000	82.2488	0.0000000E+000	0.0000000E+000	0.0000000E+000	-82.2488	0.0000000E+000	0.0000000E+000	0.0000000E+000	-7.75123	0.0000000E+000	0.0000000E+000	0.0000000E+000	7.75123	7.34668	7.75123	3.42011e-06
8683.37	16.0844	2.99466	16.3608	-10.5468	5.43199	-0.05928	-0.0122578	6.12047	0.205054	1	10	0.0102356	0.000625615	0	-1.23572e-05	0.060089	0.0111876	0.0611216	10.5468	205.054	1101.35	1120.28	-79.4532	0.0000000E+000	0.0000000E+000	0.0000000E+000	79.4532	0.0000000E+000	0.0000000E+000	0.0000000E+000	-79.4532	0.0000000E+000	0.0000000E+000	0.0000000E+000	-10.5468	0.0000000E+000	0.0000000E+000	0.0000000E+000	10.5468	5.37104	10.5468	-1.92188e-06
3961.2	16.1862	5.7826	17.1881	-19.6595	6.54495	-0.0592232	-0.0147481	6.94817	0.786428	1	10	0.0106508	0.000619657	0	-1.61588e-05	0.0547883	0.0195734	0.0581796	19.6595	786.428	2201.31	2337.57	-70.3405	0.0000000E+000	0.0000000E+000	0.0000000E+000	70.3405	0.0000000E+000	0.0000000E+000	0.0000000E+000	-70.3405	0.0000000E+000	0.0000000E+000	0.0000000E+000	-19.6595	0.0000000E+000	0.0000000E+000	0.0000000E+000	19.6595	2.79912	19.6595	-4.71366e-06
1808.26	16.3	12.0416	20.2655	-36.4551	7.49296	-0.0592203	-0.0146085	7.30928	2.58065	1	10	0.010906	0.000538155	0	-2.2398e-05	0.0396894	0.0293205	0.0493451	36.4551	2580.65	3493.27	4343.12	-53.5449	0.0000000E+000	0.0000000E+000	0.0000000E+000	53.5449	0.0000000E+000	0.0000000E+000	0.0000000E+000	-53.5449	0.0000000E+000	0.0000000E+000	0.0000000E+000	-36.4551	0.0000000E+000	0.0000000E+000	0.0000000E+000	36.4551	1.35364	36.4551	-2.06183e-06
825.264	16.5726	25.974	30.8108	-57.4603	8.43967	-0.0592317	-0.0148467	7.42485	5.2767	1	10	0.0107843	0.000350016	0	-2.68795e-05	0.0174577	0.0273612	0.0324562	57.4603	5276.7	3366.77	6259.29	-32.5397	0.0000000E+000	0.0000000E+000	0.0000000E+000	32.5397	0.0000000E+000	0.0000000E+000	0.0000000E+000	-32.5397	0.0000000E+000	0.0000000E+000	0.0000000E+000	-57.4603	0.0000000E+000	0.0000000E+000	0.0000000E+000	57.4603	0.638045	57.4603	-1.96839e-06
377.051	17.2113	56.6259	59.1838	-73.0935	9.88469	-0.0592568	-0.00180346	7.45426	6.82385	1	11	0.00981725	0.000165877	0	-2.7068e-05	0.00491369	0.0161663	0.0168965	73.0935	6823.85	2074.09	7132.09	-16.9065	0.0000000E+000	0.0000000E+000	0.0000000E+000	16.9065	0.0000000E+000	0.0000000E+000	0.0000000E+000	-16.9065	0.0000000E+000	0.0000000E+000	0.0000000E+000	-73.0935	0.0000000E+000	0.0000000E+000	0.0000000E+000	73.0935	0.303947	73.0935	-2.58298e-07
172.037	18.5182	122.726	124.115	-81.4193	10.8274	-0.0592424	-0.00179527	7.53813	7.37032	1	11	0.00959073	7.7273e-05	0	-2.82485e-05	0.00120213	0.00796687	0.00805706	81.4193	7370.32	1112.12	7453.75	-8.58069	0.0000000E+000	0.0000000E+000	0.0000000E+000	8.58069	0.0000000E+000	0.0000000E+000	0.0000000E+000	-8.58069	0.0000000E+000	0.0000000E+000	0.0000000E+000	-81.4193	0.0000000E+000	0.0000000E+000	0.0000000E+000	81.4193	0.150891	81.4193	-2.86336e-07
78.5176	22.6928	265.188	266.157	-85.109	12.0465	-0.0592284	-0.000154428	7.64363	7.58807	1	12	0.00964285	3.623e-05	0	-2.90356e-05	0.000320342	0.0037435	0.00375718	85.109	7588.07	649.332	7615.8	-4.89104	0.0000000E+000	0.0000000E+000	0.0000000E+000	4.89104	0.0000000E+000	0.0000000E+000	0.0000000E+000	-4.89104	0.0000000E+000	0.0000000E+000	0.0000000E+000	-85.109	0.0000000E+000	0.0000000E+000	0.0000000E+000	85.109	0.0855727	85.109	-5.17359e-07
35.8372	34.0302	568.03	569.049	-86.5716	12.9991	-0.0592071	-0.000230375	7.81835	7.79039	1	12	0.00954644	1.67761e-05	0	-2.92402e-05	0.000105091	0.00175417	0.00175732	86.5716	7790.39	466.715	7804.36	-3.42844	0.0000000E+000	0.0000000E+000	0.0000000E+000	3.42844	0.0000000E+000	0.0000000E+000	0.0000000E+000	-3.42844	0.0000000E+000	0.0000000E+000	0.0000000E+000	-86.5716	0.0000000E+000	0.0000000E+000	0.0000000E+000	86.5716	0.0599091	86.5716	-1.19827e-07
16.367	84.0055	1226.49	1229.37	-86.0818	13.9251	-0.0592045	-0.000190839	7.92843	7.89141	1	12	0.00952783	7.7502e-06	0	-2.91466e-05	5.55835e-05	0.000811526	0.000813428	86.0818	7891.41	540.502	7909.89	-3.91821	0.0000000E+000	0.0000000E+000	0.0000000E+000	3.91821	0.0000000E+000	0.0000000E+000	0.0000000E+000	-3.91821	0.0000000E+000	0.0000000E+000	0.0000000E+000	-86.0818	0.0000000E+000	0.0000000E+000	0.0000000E+000	86.0818	0.0684925	86.0818	7.0512e-08
7.46893	198.244	2621.41	2628.89	-85.6752	14.9446	-0.0592203	-6.59607e-06	8.12882	8.08259	1	13	0.00955898	3.63613e-06	0	-2.90924e-05	2.8685e-05	0.000379305	0.000380388	85.6752	8082.59	611.246	8105.67	-4.32476	0.0000000E+000	0.0000000E+000	0.0000000E+000	4.32476	0.0000000E+000	0.0000000E+000	0.0000000E+000	-4.32476	0.0000000E+000	0.0000000E+000	0.0000000E+000	-85.6752	0.0000000E+000	0.0000000E+000	0.0000000E+000	85.6752	0.0756249	85.6752	1.32001e-08
3.4086	492.716	5424.88	5447.21	-84.8103	16.0872	-0.0592233	4.88019e-05	8.60706	8.53664	1	13	0.00952486	1.74858e-06	0	-2.9107e-05	1.66054e-05	0.000182828	0.00018358	84.8103	8536.64	775.342	8571.77	-5.18967	0.0000000E+000	0.0000000E+000	0.0000000E+000	5.18967	0.0000000E+000	0.0000000E+000	0.0000000E+000	-5.18967	0.0000000E+000	0.0000000E+000	0.0000000E+000	-84.8103	0.0000000E+000	0.0000000E+000	0.0000000E+000	84.8103	0.0908252	84.8103	4.33678e-09
2.30321	743.104	7974.41	8008.96	-84.6762	22.8911	-0.0592138	-1.15632e-05	8.66537	8.59077	1	13	0.0104034	1.29897e-06	0	-2.90294e-05	1.1585e-05	0.000124322	0.00012486	84.6762	8590.77	800.54	8627.99	-5.32379	0.0000000E+000	0.0000000E+000	0.0000000E+000	5.32379	0.0000000E+000	0.0000000E+000	0.0000000E+000	-5.32379	0.0000000E+000	0.0000000E+000	0.0000000E+000	-84.6762	0.0000000E+000	0.0000000E+000	0.0000000E+000	84.6762	0.0931861	84.6762	7.75566e-08