File: Data_Lola/CoNiFeNx_400ºC_24h_13102022/Electrodes_20012023/Set 2/2023_01_23_CoNiFeNx_400ºC_24h_electrode1__set2_20012023_1_03_CP_C01.mpt
EC-Lab ASCII FILE
Nb header lines : 52

Chronopotentiometry

Run on channel : 1 (SN 21648)
User :
CE vs. WE compliance from -10 V to 10 V
Electrode connection : standard
Potential control : Ewe
Ewe ctrl range : min = -2.50 V, max = 2.50 V
Safety Limits :
	Do not start on E overload
Acquisition started on : 01/23/2023 11:53:57.913
Loaded Setting File :  C:\Users\grupogalan\Documents\EC-Lab\Data\Lole Jurado\2023_01_20_CoNiFeNx_400ºC_24h_electrode2_19012023_1.mps
Saved on :
	File : 2023_01_23_CoNiFeNx_400ºC_24h_electrode1__set2_20012023_1_03_CP_C01.mpr
	Directory : C:\Users\grupogalan\Documents\EC-Lab\Data\Lole Jurado\
	Host : 169.254.104.159
Device : VSP (SN 1176)
Address : USB
EC-Lab for windows v11.46 (software)
Internet server v11.40 (firmware)
Command interpretor v11.40 (firmware)
Electrode material :
Initial state :
Electrolyte :
Comments :
Electrode surface area : 0.000 cm²
Characteristic mass : 0.001 g
Equivalent Weight : 0.000 g/eq.
Density : 0.000 g/cm3
Volume (V) : 0.001 cm³
Cycle Definition : Charge/Discharge alternance
Is                  10.000
unit Is             mA
vs.                 <None>
ts (h:m:s)          2:00:0.0000
EM (V)              pass
dQM                 20.000
unit dQM            mA.h
record              <Ewe>
dEs (mV)            0.00
dts (s)             1.0000
E range min (V)     -2.500
E range max (V)     2.500
I Range             10 mA
Bandwidth           5
goto Ns'            0
nc cycles           0

mode	ox/red	error	control changes	Ns changes	counter inc.	Ns	time/s	control/mA	<Ewe>/V	I/mA	dQ/C	(Q-Qo)/C	half cycle	Q charge/discharge/mA.h	I Range	Energy charge/W.h	Energy discharge/W.h	Capacitance charge/µF	Capacitance discharge/µF	Q discharge/mA.h	Q charge/mA.h	Capacity/mA.h	Efficiency/%	cycle number	P/W
1	1	0	1	0	0	0	679.184	10	0.752204	9.99948	0.00947621	0.00947621	0	0.00263228	11	1.98001e-06	0.000000000000000E+000	0.000000000000000E+000	0.000000000000000E+000	0.000000000000000E+000	0.00263228	0.00263228	0.0000000E+000	0.000000000000000E+000	0.00752165
1	1	0	1	0	0	0	843.184	10	0.752458	9.99973	1.64951	1.64951	0	0.458197	11	0.000345069	0.000000000000000E+000	6.5085e+09	0.000000000000000E+000	0.000000000000000E+000	0.458197	0.458197	0.0000000E+000	0.000000000000000E+000	0.00752438
1	1	0	1	0	0	0	1007.18	10	0.75354	9.9998	3.28953	3.28953	0	0.913759	11	0.000688077	0.000000000000000E+000	2.46347e+09	0.000000000000000E+000	0.000000000000000E+000	0.913759	0.913759	0.0000000E+000	0.000000000000000E+000	0.00753524
1	1	0	1	0	0	0	1171.18	10	0.754899	9.99954	4.92956	4.92956	0	1.36932	11	0.00103162	0.000000000000000E+000	1.82917e+09	0.000000000000000E+000	0.000000000000000E+000	1.36932	1.36932	0.0000000E+000	0.000000000000000E+000	0.00754865
1	1	0	1	0	0	0	1335.18	10	0.757129	10.0004	6.56959	6.56959	0	1.82489	11	0.00137604	0.000000000000000E+000	1.33413e+09	0.000000000000000E+000	0.000000000000000E+000	1.82489	1.82489	0.0000000E+000	0.000000000000000E+000	0.00757156
1	1	0	1	0	0	0	1499.18	10	0.759637	10.0006	8.20963	8.20963	0	2.28045	11	0.00172151	0.000000000000000E+000	1.10447e+09	0.000000000000000E+000	0.000000000000000E+000	2.28045	2.28045	0.0000000E+000	0.000000000000000E+000	0.0075968
1	1	0	1	0	0	0	1663.18	10	0.762602	10.0004	9.84966	9.84966	0	2.73602	11	0.00206829	0.000000000000000E+000	9.47283e+08	0.000000000000000E+000	0.000000000000000E+000	2.73602	2.73602	0.0000000E+000	0.000000000000000E+000	0.00762635
1	1	0	1	0	0	0	1827.18	10	0.766149	10.0007	11.4897	11.4897	0	3.19158	11	0.00241651	0.000000000000000E+000	8.23926e+08	0.000000000000000E+000	0.000000000000000E+000	3.19158	3.19158	0.0000000E+000	0.000000000000000E+000	0.00766202
1	1	0	1	0	0	0	1991.18	10	0.769342	10.0001	13.1297	13.1297	0	3.64714	11	0.00276622	0.000000000000000E+000	7.66136e+08	0.000000000000000E+000	0.000000000000000E+000	3.64714	3.64714	0.0000000E+000	0.000000000000000E+000	0.00769351
1	1	0	1	0	0	0	2155.18	10	0.77302	10.0002	14.7698	14.7698	0	4.10271	11	0.00311763	0.000000000000000E+000	7.09536e+08	0.000000000000000E+000	0.000000000000000E+000	4.10271	4.10271	0.0000000E+000	0.000000000000000E+000	0.00773039
1	1	0	1	0	0	0	2319.18	10	0.776832	10.0004	16.4098	16.4098	0	4.55827	11	0.0034707	0.000000000000000E+000	6.66319e+08	0.000000000000000E+000	0.000000000000000E+000	4.55827	4.55827	0.0000000E+000	0.000000000000000E+000	0.00776865
1	1	0	1	0	0	0	2483.18	10	0.780283	10.0006	18.0498	18.0498	0	5.01384	11	0.00382546	0.000000000000000E+000	6.42836e+08	0.000000000000000E+000	0.000000000000000E+000	5.01384	5.01384	0.0000000E+000	0.000000000000000E+000	0.00780331
1	1	0	1	0	0	0	2647.18	10	0.783941	9.99992	19.6899	19.6899	0	5.4694	11	0.00418184	0.000000000000000E+000	6.20411e+08	0.000000000000000E+000	0.000000000000000E+000	5.4694	5.4694	0.0000000E+000	0.000000000000000E+000	0.00783935
1	1	0	1	0	0	0	2811.18	10	0.786053	9.99992	21.3299	21.3299	0	5.92497	11	0.00453931	0.000000000000000E+000	6.30159e+08	0.000000000000000E+000	0.000000000000000E+000	5.92497	5.92497	0.0000000E+000	0.000000000000000E+000	0.00786047
1	1	0	1	0	0	0	2975.18	10	0.78932	9.9991	22.9699	22.9699	0	6.38053	11	0.00489817	0.000000000000000E+000	6.18875e+08	0.000000000000000E+000	0.000000000000000E+000	6.38053	6.38053	0.0000000E+000	0.000000000000000E+000	0.00789249
1	1	0	1	0	0	0	3139.18	10	0.792525	10.0004	24.61	24.61	0	6.8361	11	0.00525851	0.000000000000000E+000	6.10357e+08	0.000000000000000E+000	0.000000000000000E+000	6.8361	6.8361	0.0000000E+000	0.000000000000000E+000	0.00792554
1	1	0	1	0	0	0	3303.18	10	0.795452	10	26.25	26.25	0	7.29166	11	0.00562019	0.000000000000000E+000	6.06967e+08	0.000000000000000E+000	0.000000000000000E+000	7.29166	7.29166	0.0000000E+000	0.000000000000000E+000	0.00795456
1	1	0	1	0	0	0	3467.18	10	0.798448	10	27.89	27.89	0	7.74723	11	0.00598323	0.000000000000000E+000	6.03114e+08	0.000000000000000E+000	0.000000000000000E+000	7.74723	7.74723	0.0000000E+000	0.000000000000000E+000	0.00798452
1	1	0	1	0	0	0	3631.18	10	0.801168	10.0006	29.53	29.53	0	8.20279	11	0.0063476	0.000000000000000E+000	6.03102e+08	0.000000000000000E+000	0.000000000000000E+000	8.20279	8.20279	0.0000000E+000	0.000000000000000E+000	0.00801213
1	1	0	1	0	0	0	3795.18	10	0.804143	10.0003	31.1701	31.1701	0	8.65835	11	0.00671324	0.000000000000000E+000	6.00132e+08	0.000000000000000E+000	0.000000000000000E+000	8.65835	8.65835	0.0000000E+000	0.000000000000000E+000	0.00804167
1	1	0	1	0	0	0	3959.18	10	0.806446	10.0007	32.8101	32.8101	0	9.11392	11	0.0070801	0.000000000000000E+000	6.04889e+08	0.000000000000000E+000	0.000000000000000E+000	9.11392	9.11392	0.0000000E+000	0.000000000000000E+000	0.00806506
1	1	0	1	0	0	0	4123.18	10	0.809116	9.99922	34.4501	34.4501	0	9.56948	11	0.00744812	0.000000000000000E+000	6.05323e+08	0.000000000000000E+000	0.000000000000000E+000	9.56948	9.56948	0.0000000E+000	0.000000000000000E+000	0.00809054
1	1	0	1	0	0	0	4287.18	10	0.811397	9.99999	36.0901	36.0901	0	10.025	11	0.00781732	0.000000000000000E+000	6.09702e+08	0.000000000000000E+000	0.000000000000000E+000	10.025	10.025	0.0000000E+000	0.000000000000000E+000	0.00811396
1	1	0	1	0	0	0	4451.18	10	0.814333	9.9998	37.7302	37.7302	0	10.4806	11	0.00818759	0.000000000000000E+000	6.07291e+08	0.000000000000000E+000	0.000000000000000E+000	10.4806	10.4806	0.0000000E+000	0.000000000000000E+000	0.00814316
1	1	0	1	0	0	0	4615.18	10	0.816402	10.0006	39.3702	39.3702	0	10.9362	11	0.00855901	0.000000000000000E+000	6.13265e+08	0.000000000000000E+000	0.000000000000000E+000	10.9362	10.9362	0.0000000E+000	0.000000000000000E+000	0.00816447
1	1	0	1	0	0	0	4779.18	10	0.819685	10.0006	41.0102	41.0102	0	11.3917	11	0.00893172	0.000000000000000E+000	6.07736e+08	0.000000000000000E+000	0.000000000000000E+000	11.3917	11.3917	0.0000000E+000	0.000000000000000E+000	0.0081973
1	1	0	1	0	0	0	4943.18	10	0.821897	9.99992	42.6503	42.6503	0	11.8473	11	0.00930565	0.000000000000000E+000	6.11979e+08	0.000000000000000E+000	0.000000000000000E+000	11.8473	11.8473	0.0000000E+000	0.000000000000000E+000	0.0082189
1	1	0	1	0	0	0	5107.18	10	0.824337	10.0004	44.2903	44.2903	0	12.3029	11	0.00968067	0.000000000000000E+000	6.14008e+08	0.000000000000000E+000	0.000000000000000E+000	12.3029	12.3029	0.0000000E+000	0.000000000000000E+000	0.00824368
1	1	0	1	0	0	0	5271.18	10	0.82684	9.99992	45.9303	45.9303	0	12.7584	11	0.0100568	0.000000000000000E+000	6.15391e+08	0.000000000000000E+000	0.000000000000000E+000	12.7584	12.7584	0.0000000E+000	0.000000000000000E+000	0.00826834
1	1	0	1	0	0	0	5435.18	10	0.828839	10.0004	47.5704	47.5704	0	13.214	11	0.0104339	0.000000000000000E+000	6.20746e+08	0.000000000000000E+000	0.000000000000000E+000	13.214	13.214	0.0000000E+000	0.000000000000000E+000	0.00828869
1	1	0	1	0	0	0	5599.18	10	0.831276	10.0002	49.2104	49.2104	0	13.6696	11	0.010812	0.000000000000000E+000	6.22351e+08	0.000000000000000E+000	0.000000000000000E+000	13.6696	13.6696	0.0000000E+000	0.000000000000000E+000	0.00831296
1	1	0	1	0	0	0	5763.18	10	0.833541	10.0013	50.8504	50.8504	0	14.1251	11	0.0111912	0.000000000000000E+000	6.25185e+08	0.000000000000000E+000	0.000000000000000E+000	14.1251	14.1251	0.0000000E+000	0.000000000000000E+000	0.00833646
1	1	0	1	0	0	0	5927.18	10	0.83592	10.0001	52.4905	52.4905	0	14.5807	11	0.0115714	0.000000000000000E+000	6.27012e+08	0.000000000000000E+000	0.000000000000000E+000	14.5807	14.5807	0.0000000E+000	0.000000000000000E+000	0.00835929
1	1	0	1	0	0	0	6091.18	10	0.838058	10.0004	54.1305	54.1305	0	15.0362	11	0.0119527	0.000000000000000E+000	6.30496e+08	0.000000000000000E+000	0.000000000000000E+000	15.0362	15.0362	0.0000000E+000	0.000000000000000E+000	0.00838094
1	1	0	1	0	0	0	6255.18	10	0.840077	9.99954	55.7705	55.7705	0	15.4918	11	0.012335	0.000000000000000E+000	6.34676e+08	0.000000000000000E+000	0.000000000000000E+000	15.4918	15.4918	0.0000000E+000	0.000000000000000E+000	0.00840038
1	1	0	1	0	0	0	6419.18	10	0.841845	10.0004	57.4106	57.4106	0	15.9474	11	0.0127182	0.000000000000000E+000	6.40452e+08	0.000000000000000E+000	0.000000000000000E+000	15.9474	15.9474	0.0000000E+000	0.000000000000000E+000	0.00841881
1	1	0	1	0	0	0	6583.18	10	0.843855	9.99954	59.0506	59.0506	0	16.4029	11	0.0131022	0.000000000000000E+000	6.44301e+08	0.000000000000000E+000	0.000000000000000E+000	16.4029	16.4029	0.0000000E+000	0.000000000000000E+000	0.00843816
1	1	0	1	0	0	0	6747.18	10	0.845823	10.0005	60.6906	60.6906	0	16.8585	11	0.0134871	0.000000000000000E+000	6.48271e+08	0.000000000000000E+000	0.000000000000000E+000	16.8585	16.8585	0.0000000E+000	0.000000000000000E+000	0.00845865
1	1	0	1	0	0	0	6911.18	10	0.847907	9.99973	62.3307	62.3307	0	17.3141	11	0.0138728	0.000000000000000E+000	6.51292e+08	0.000000000000000E+000	0.000000000000000E+000	17.3141	17.3141	0.0000000E+000	0.000000000000000E+000	0.00847885
1	1	0	1	0	0	0	7075.18	10	0.849648	10.0006	63.9707	63.9707	0	17.7696	11	0.0142595	0.000000000000000E+000	6.56492e+08	0.000000000000000E+000	0.000000000000000E+000	17.7696	17.7696	0.0000000E+000	0.000000000000000E+000	0.008497
1	1	0	1	0	0	0	7239.18	10	0.850977	10.0013	65.6107	65.6107	0	18.2252	11	0.0146468	0.000000000000000E+000	6.64262e+08	0.000000000000000E+000	0.000000000000000E+000	18.2252	18.2252	0.0000000E+000	0.000000000000000E+000	0.00851083
1	1	0	1	0	0	0	7403.18	10	0.852786	9.99992	67.2508	67.2508	0	18.6808	11	0.0150349	0.000000000000000E+000	6.68616e+08	0.000000000000000E+000	0.000000000000000E+000	18.6808	18.6808	0.0000000E+000	0.000000000000000E+000	0.0085278
1	1	0	1	0	0	0	7567.18	10	0.854159	10.0007	68.8908	68.8908	0	19.1363	11	0.0154237	0.000000000000000E+000	6.757e+08	0.000000000000000E+000	0.000000000000000E+000	19.1363	19.1363	0.0000000E+000	0.000000000000000E+000	0.00854218
1	1	0	1	0	0	0	7731.18	10	0.855898	9.99942	70.5308	70.5308	0	19.5919	11	0.0158132	0.000000000000000E+000	6.80186e+08	0.000000000000000E+000	0.000000000000000E+000	19.5919	19.5919	0.0000000E+000	0.000000000000000E+000	0.00855848
1	1	0	1	0	0	0	7878.24	10	0.857721	10.0005	72.0014	72.0014	0	20.0004	11	0.0161631	0.000000000000000E+000	6.82368e+08	0.000000000000000E+000	0.000000000000000E+000	20.0004	20.0004	0.0000000E+000	0.000000000000000E+000	0.00857764