File: Data_Lola/CoNiFeNx_400ºC_24h_13102022/Electrodes_20012023/Set 2/2023_01_23_CoNiFeNx_400ºC_24h_electrode1_set2_20012023_C05.mpt
EC-Lab ASCII FILE
Nb header lines : 64

Potentio Electrochemical Impedance Spectroscopy

Run on channel : 5 (SN 30436)
User :
CE vs. WE compliance from -10 V to 10 V
Electrode connection : standard
Potential control : Ewe
Ewe ctrl range : min = -2.50 V, max = 2.50 V
Safety Limits :
	Do not start on E overload
Acquisition started on : 01/23/2023 11:50:29.395
Loaded Setting File :  NONE
Saved on :
	File : 2023_01_23_CoNiFeNx_400ºC_24h_electrode1_set2_20012023_C05.mpr
	Directory : C:\Users\grupogalan\Documents\EC-Lab\Data\Lole Jurado\
	Host : 169.254.104.159
Device : VSP (SN 1176)
Address : USB
EC-Lab for windows v11.46 (software)
Internet server v11.40 (firmware)
Command interpretor v11.40 (firmware)
Electrode material :
Initial state :
Electrolyte :
Comments :
Electrode surface area : 0.001 cm²
Characteristic mass : 0.001 g
Equivalent Weight : 0.000 g/eq.
Density : 0.000 g/cm3
Volume (V) : 0.001 cm³
Record Ece
Cycle Definition : Charge/Discharge alternance
Mode                Single sine
E (V)               0.0000
vs.                 Eoc
tE (h:m:s)          0:00:0.0000
record              0
dI                  0.000
unit dI             mA
dt (s)              0.000
fi                  200.000
unit fi             kHz
ff                  100.000
unit ff             mHz
Nd                  6
Points              per decade
spacing             Logarithmic
Va (mV)             10.0
pw                  0.10
Na                  2
corr                0
E range min (V)     -2.500
E range max (V)     2.500
I Range             Auto
Bandwidth           5
nc cycles           0
goto Ns'            0
nr cycles           0
inc. cycle          0

freq/Hz	Re(Z)/Ohm	-Im(Z)/Ohm	|Z|/Ohm	Phase(Z)/deg	time/s	<Ewe>/V	<I>/mA	Cs/µF	Cp/µF	cycle number	I Range	|Ewe|/V	|I|/A	Ns	(Q-Qo)/mA.h	<Ece>/V	|Ece|/V	Phase(Zce)/deg	|Zce|/Ohm	Re(Zce)/Ohm	-Im(Zce)/Ohm	Phase(Zwe-ce)/deg	|Zwe-ce|/Ohm	Re(Zwe-ce)/Ohm	-Im(Zwe-ce)/Ohm	Re(Y)/Ohm-1	Im(Y)/Ohm-1	|Y|/Ohm-1	Phase(Y)/deg	dq/mA.h
199998	1.79454	-1.45108	2.30782	38.9593	2.50952	-0.12934	-0.166862	-0.548407	-0.216812	1	9	0.00791303	0.0034288	0	-3.02161e-05	0.0648565	0.00562522	-11.1003	1.64058	1.60989	0.315857	18.4412	3.58871	3.40443	-1.13522	0.336939	-0.272451	0.43331	-38.9593	-3.02161e-05
91291.2	1.3444	-0.286367	1.37456	12.0247	3.26354	-0.129659	-0.156725	-6.08791	-0.264234	1	9	0.0101362	0.00737413	0	-7.17702e-05	0.0656588	0.0163943	3.03699	2.22322	2.2201	-0.117788	6.46877	3.58733	3.56449	-0.404154	0.711544	-0.151564	0.727507	-12.0247	-2.16042e-05
41669.8	1.34584	0.0511753	1.34682	-2.1776	4.26152	-0.129431	-0.15352	74.6344	0.107756	1	9	0.00966578	0.00717677	0	-0.000101508	0.0727837	0.0159682	1.48806	2.22498	2.22423	-0.0577797	0.105994	3.57008	3.57007	-0.00660446	0.741956	0.0282126	0.742492	2.1776	-1.09979e-05
19020.9	1.34044	0.302647	1.37418	-12.7231	5.01554	-0.129586	-0.164738	27.6472	1.34103	1	9	0.0105695	0.00769155	0	-0.000206641	0.0622778	0.0169762	0.40035	2.20713	2.20708	-0.015422	-4.62887	3.55912	3.54751	0.287225	0.70984	0.16027	0.727708	12.7231	-9.33001e-05
8684.68	1.46424	0.67598	1.61275	-24.7808	5.76953	-0.129912	-0.150538	27.1102	4.76286	1	9	0.0100497	0.00623139	0	-0.000228038	0.0721342	0.0138977	-1.46483	2.23028	2.22955	0.0570132	-11.2239	3.76581	3.69379	0.732994	0.562963	0.259897	0.62006	24.7808	-4.93373e-06
3960.08	1.56954	1.19936	1.97533	-37.3851	6.32582	-0.129729	-0.19187	33.5094	12.3534	1	9	0.00952022	0.00481956	0	-0.000263382	0.0665566	0.0106882	-3.49687	2.21768	2.21355	0.135265	-19.4322	4.01161	3.78309	1.33463	0.402248	0.307376	0.506244	37.3851	-2.04754e-05
1808.26	1.68415	2.55781	3.06248	-56.6378	7.41509	-0.129452	-0.163322	34.4104	24.0039	1	9	0.0101221	0.00330521	0	-0.000305052	0.0867852	0.00769073	-9.82649	2.32685	2.29271	0.397112	-36.6134	4.95449	3.97686	2.95493	0.17957	0.272724	0.326533	56.6378	-2.63741e-05
825.264	1.93078	5.05551	5.41166	-69.0974	8.54878	-0.129307	-0.0258368	38.1471	33.2913	1	10	0.00978116	0.00180742	0	-0.000321096	0.0681993	0.00454278	-14.3671	2.5134	2.4348	0.623661	-52.4506	7.16319	4.36557	5.67917	0.0659281	0.172625	0.184786	69.0974	-3.24778e-06
377.051	2.55178	10.9262	11.2202	-76.8544	9.43881	-0.129338	-0.0246252	38.6324	36.6342	1	10	0.00994266	0.000886139	0	-0.000326596	0.0669577	0.0023687	-19.9586	2.67306	2.51251	0.912425	-66.8399	12.8763	5.06429	11.8386	0.0202694	0.0867894	0.0891249	76.8544	-3.36984e-06
172.037	4.70427	22.7633	23.2443	-78.3236	10.3255	-0.129623	-0.028853	40.6409	38.9763	1	10	0.0101034	0.000434663	0	-0.000332283	0.0668431	0.00121257	-34.88	2.78968	2.28852	1.59531	-73.9825	25.3425	6.99278	24.3586	0.00870679	0.042131	0.0430212	78.3236	-3.06885e-06
78.5176	9.09428	44.6099	45.5274	-78.4774	11.4616	-0.129461	-0.00279583	45.4383	43.6252	1	11	0.00977794	0.00021477	0	-0.000334332	0.0771198	0.0012278	-44.3224	5.7168	4.08991	3.9943	-74.8234	50.3606	13.1842	48.6042	0.00438755	0.0215221	0.0219648	78.4774	-4.79165e-07
35.8372	16.9834	90.6966	92.273	-79.3939	12.3582	-0.129691	-0.00341956	48.9661	47.3073	1	11	0.00982943	0.000106526	0	-0.000335168	0.0708353	0.000922037	-64.1652	8.65555	3.7719	7.79047	-78.0995	100.65	20.7553	98.4871	0.00199469	0.0106523	0.0108374	79.3939	-6.07315e-07
16.367	44.4233	175.377	180.916	-75.7859	13.4542	-0.129592	-0.00118202	55.4471	52.104	1	12	0.0098337	5.43551e-05	0	-0.000335452	0.0552675	0.000595157	-22.5633	10.9494	10.1113	4.20134	-73.1075	187.677	54.5346	179.579	0.00135724	0.0053582	0.00552743	75.7859	9.08606e-08
7.46893	81.3529	337.994	347.646	-76.4667	14.1677	-0.129475	-0.00137072	63.0454	59.5929	1	12	0.00963891	2.77262e-05	0	-0.000335527	0.0671869	0.000749678	-53.1968	27.0386	16.198	21.6498	-74.8241	372.639	97.5509	359.643	0.000673128	0.00279662	0.00287649	76.4667	1.96984e-07
3.4086	225.296	655.876	693.492	-71.0422	15.2513	-0.129629	-0.000557553	71.1907	63.6771	1	12	0.0100342	1.44691e-05	0	-0.000335779	0.0616093	0.000874597	-64.9671	60.4457	25.5769	54.7677	-70.5559	753.625	250.873	710.644	0.000468457	0.00136376	0.00144198	71.0422	-2.34227e-07
1.55627	397.879	1221.75	1284.9	-71.9614	18.0399	-0.129487	-0.000352949	83.7052	75.6789	1	13	0.00971927	7.56421e-06	0	-0.000335965	0.0687724	0.000721074	-67.7802	95.3271	36.049	88.2482	-71.6729	1379.99	433.928	1310	0.000240996	0.000740016	0.000778269	71.9614	7.79298e-09
0.710357	840.489	2257.79	2409.16	-69.5816	38.122	-0.129621	-0.000358596	99.2338	87.1559	1	13	0.0100977	4.19137e-06	0	-0.000337806	0.0711028	0.000590377	-70.3606	140.855	47.3415	132.661	-69.6247	2550	887.831	2390.45	0.000144811	0.000389003	0.000415083	69.5816	-1.82769e-06
0.324439	1949.8	4253.06	4678.7	-65.3711	80.3312	-0.129523	-0.000573683	115.341	95.3098	1	14	0.0101162	2.16217e-06	0	-0.000344716	0.0729174	0.00059112	-63.839	273.391	120.537	245.385	-65.2866	4952	2070.33	4498.45	8.90714e-05	0.00019429	0.000213734	65.3711	-3.02e-06
0.147897	4396.84	7247.08	8476.58	-58.7546	104.2	-0.129523	-0.000653394	148.49	108.538	1	14	0.0100803	1.1892e-06	0	-0.000348663	0.0648756	0.000703991	-63.0292	591.988	268.488	527.602	-59.0334	9067.03	4665.33	7774.68	6.11927e-05	0.000100861	0.000117972	58.7546	-2.37638e-06
0.0999041	6566.06	9092.41	11215.4	-54.1652	125.273	-0.129531	-0.000706148	175.21	115.156	1	14	0.0101554	9.0549e-07	0	-0.000352503	0.0760692	0.000782634	-75.725	864.321	213.121	837.634	-55.6789	12023.4	6779.18	9930.04	5.22006e-05	7.22853e-05	8.91632e-05	54.1652	-3.83985e-06