File: Data_Lola/CoNiFeNx_400ºC_24h_13102022/Electrodes_20012023/Set 2/2023_01_23_CoNiFeNx_400ºC_24h_electrode2_set2_20012023_1_03_CP_C02.mpt
EC-Lab ASCII FILE
Nb header lines : 52

Chronopotentiometry

Run on channel : 2 (SN 12477)
User :
CE vs. WE compliance from -10 V to 10 V
Electrode connection : standard
Potential control : Ewe
Ewe ctrl range : min = -2.50 V, max = 2.50 V
Safety Limits :
	Do not start on E overload
Acquisition started on : 01/23/2023 12:38:23.307
Loaded Setting File :  C:\Users\grupogalan\Documents\EC-Lab\Data\Lole Jurado\2023_01_23_CoNiFeNx_400ºC_24h_electrode1__set2_20012023_1.mps
Saved on :
	File : 2023_01_23_CoNiFeNx_400ºC_24h_electrode2_set2_20012023_1_03_CP_C02.mpr
	Directory : C:\Users\grupogalan\Documents\EC-Lab\Data\Lole Jurado\
	Host : 169.254.104.159
Device : VSP (SN 1176)
Address : USB
EC-Lab for windows v11.46 (software)
Internet server v11.40 (firmware)
Command interpretor v11.40 (firmware)
Electrode material :
Initial state :
Electrolyte :
Comments :
Electrode surface area : 0.000 cm²
Characteristic mass : 0.001 g
Equivalent Weight : 0.000 g/eq.
Density : 0.000 g/cm3
Volume (V) : 0.001 cm³
Cycle Definition : Charge/Discharge alternance
Is                  10.000
unit Is             mA
vs.                 <None>
ts (h:m:s)          2:00:0.0000
EM (V)              pass
dQM                 20.000
unit dQM            mA.h
record              <Ewe>
dEs (mV)            0.00
dts (s)             1.0000
E range min (V)     -2.500
E range max (V)     2.500
I Range             10 mA
Bandwidth           5
goto Ns'            0
nc cycles           0

mode	ox/red	error	control changes	Ns changes	counter inc.	Ns	time/s	control/mA	<Ewe>/V	I/mA	dQ/C	(Q-Qo)/C	half cycle	Q charge/discharge/mA.h	I Range	Energy charge/W.h	Energy discharge/W.h	Capacitance charge/µF	Capacitance discharge/µF	Q discharge/mA.h	Q charge/mA.h	Capacity/mA.h	Efficiency/%	cycle number	P/W
1	1	0	1	0	0	0	2063.26	10	0.736139	10.0014	0.00947723	0.00947723	0	0.00263256	11	1.93793e-06	0.000000000000000E+000	0.000000000000000E+000	0.000000000000000E+000	0.000000000000000E+000	0.00263256	0.00263256	0.0000000E+000	0.000000000000000E+000	0.0073624
1	1	0	1	0	0	0	2227.26	10	0.770765	10.0009	1.6497	1.6497	0	0.458249	11	0.000352947	0.000000000000000E+000	4.76438e+07	0.000000000000000E+000	0.000000000000000E+000	0.458249	0.458249	0.0000000E+000	0.000000000000000E+000	0.00770831
1	1	0	1	0	0	0	2391.26	10	0.772535	10.0009	3.28992	3.28992	0	0.913866	11	0.000704535	0.000000000000000E+000	9.03924e+07	0.000000000000000E+000	0.000000000000000E+000	0.913866	0.913866	0.0000000E+000	0.000000000000000E+000	0.00772602
1	1	0	1	0	0	0	2555.26	10	0.774437	10.0016	4.93014	4.93014	0	1.36948	11	0.00105695	0.000000000000000E+000	1.28731e+08	0.000000000000000E+000	0.000000000000000E+000	1.36948	1.36948	0.0000000E+000	0.000000000000000E+000	0.00774563
1	1	0	1	0	0	0	2719.26	10	0.776669	10.0019	6.57036	6.57036	0	1.8251	11	0.00141029	0.000000000000000E+000	1.62112e+08	0.000000000000000E+000	0.000000000000000E+000	1.8251	1.8251	0.0000000E+000	0.000000000000000E+000	0.00776815
1	1	0	1	0	0	0	2883.26	10	0.779002	10.0007	8.21058	8.21058	0	2.28072	11	0.00176466	0.000000000000000E+000	1.91556e+08	0.000000000000000E+000	0.000000000000000E+000	2.28072	2.28072	0.0000000E+000	0.000000000000000E+000	0.00779054
1	1	0	1	0	0	0	3047.26	10	0.781536	10.0014	9.8508	9.8508	0	2.73633	11	0.00212015	0.000000000000000E+000	2.16995e+08	0.000000000000000E+000	0.000000000000000E+000	2.73633	2.73633	0.0000000E+000	0.000000000000000E+000	0.00781647
1	1	0	1	0	0	0	3211.26	10	0.783997	10.0021	11.491	11.491	0	3.19195	11	0.00247683	0.000000000000000E+000	2.40108e+08	0.000000000000000E+000	0.000000000000000E+000	3.19195	3.19195	0.0000000E+000	0.000000000000000E+000	0.00784159
1	1	0	1	0	0	0	3375.26	10	0.786698	10.0017	13.1312	13.1312	0	3.64756	11	0.00283466	0.000000000000000E+000	2.59725e+08	0.000000000000000E+000	0.000000000000000E+000	3.64756	3.64756	0.0000000E+000	0.000000000000000E+000	0.00786835
1	1	0	1	0	0	0	3539.26	10	0.789406	10.0011	14.7714	14.7714	0	4.10318	11	0.00319371	0.000000000000000E+000	2.77312e+08	0.000000000000000E+000	0.000000000000000E+000	4.10318	4.10318	0.0000000E+000	0.000000000000000E+000	0.00789494
1	1	0	1	0	0	0	3703.26	10	0.79174	10.0007	16.4117	16.4117	0	4.5588	11	0.00355391	0.000000000000000E+000	2.95173e+08	0.000000000000000E+000	0.000000000000000E+000	4.5588	4.5588	0.0000000E+000	0.000000000000000E+000	0.00791797
1	1	0	1	0	0	0	3867.26	10	0.7942	10.0013	18.0519	18.0519	0	5.01441	11	0.00391521	0.000000000000000E+000	3.10916e+08	0.000000000000000E+000	0.000000000000000E+000	5.01441	5.01441	0.0000000E+000	0.000000000000000E+000	0.00794303
1	1	0	1	0	0	0	4031.26	10	0.796448	10.0011	19.6921	19.6921	0	5.47003	11	0.00427756	0.000000000000000E+000	3.26521e+08	0.000000000000000E+000	0.000000000000000E+000	5.47003	5.47003	0.0000000E+000	0.000000000000000E+000	0.00796537
1	1	0	1	0	0	0	4195.26	10	0.798736	10.0014	21.3323	21.3323	0	5.92565	11	0.00464094	0.000000000000000E+000	3.4079e+08	0.000000000000000E+000	0.000000000000000E+000	5.92565	5.92565	0.0000000E+000	0.000000000000000E+000	0.00798845
1	1	0	1	0	0	0	4359.26	10	0.800693	10.0013	22.9726	22.9726	0	6.38126	11	0.00500532	0.000000000000000E+000	3.55868e+08	0.000000000000000E+000	0.000000000000000E+000	6.38126	6.38126	0.0000000E+000	0.000000000000000E+000	0.00800797
1	1	0	1	0	0	0	4523.26	10	0.802649	10.0015	24.6128	24.6128	0	6.83688	11	0.00537058	0.000000000000000E+000	3.70061e+08	0.000000000000000E+000	0.000000000000000E+000	6.83688	6.83688	0.0000000E+000	0.000000000000000E+000	0.00802769
1	1	0	1	0	0	0	4687.26	10	0.804633	10.0019	26.253	26.253	0	7.2925	11	0.00573674	0.000000000000000E+000	3.83293e+08	0.000000000000000E+000	0.000000000000000E+000	7.2925	7.2925	0.0000000E+000	0.000000000000000E+000	0.00804789
1	1	0	1	0	0	0	4851.26	10	0.806502	10.0012	27.8932	27.8932	0	7.74811	11	0.00610377	0.000000000000000E+000	3.96422e+08	0.000000000000000E+000	0.000000000000000E+000	7.74811	7.74811	0.0000000E+000	0.000000000000000E+000	0.00806602
1	1	0	1	0	0	0	5015.26	10	0.808314	10.0016	29.5334	29.5334	0	8.20373	11	0.00647163	0.000000000000000E+000	4.09191e+08	0.000000000000000E+000	0.000000000000000E+000	8.20373	8.20373	0.0000000E+000	0.000000000000000E+000	0.00808445
1	1	0	1	0	0	0	5179.26	10	0.809986	10.0014	31.1736	31.1736	0	8.65935	11	0.0068403	0.000000000000000E+000	4.22138e+08	0.000000000000000E+000	0.000000000000000E+000	8.65935	8.65935	0.0000000E+000	0.000000000000000E+000	0.00810102
1	1	0	1	0	0	0	5343.26	10	0.811831	10.0014	32.8139	32.8139	0	9.11496	11	0.00720976	0.000000000000000E+000	4.33518e+08	0.000000000000000E+000	0.000000000000000E+000	9.11496	9.11496	0.0000000E+000	0.000000000000000E+000	0.00811942
1	1	0	1	0	0	0	5507.26	10	0.813461	10.0017	34.4541	34.4541	0	9.57058	11	0.00758001	0.000000000000000E+000	4.45594e+08	0.000000000000000E+000	0.000000000000000E+000	9.57058	9.57058	0.0000000E+000	0.000000000000000E+000	0.00813598
1	1	0	1	0	0	0	5671.26	10	0.815114	10.0007	36.0943	36.0943	0	10.0262	11	0.007951	0.000000000000000E+000	4.57035e+08	0.000000000000000E+000	0.000000000000000E+000	10.0262	10.0262	0.0000000E+000	0.000000000000000E+000	0.00815174
1	1	0	1	0	0	0	5835.26	10	0.816745	10.0019	37.7345	37.7345	0	10.4818	11	0.00832275	0.000000000000000E+000	4.68139e+08	0.000000000000000E+000	0.000000000000000E+000	10.4818	10.4818	0.0000000E+000	0.000000000000000E+000	0.00816898
1	1	0	1	0	0	0	5999.26	10	0.818231	10.0007	39.3747	39.3747	0	10.9374	11	0.0086952	0.000000000000000E+000	4.79641e+08	0.000000000000000E+000	0.000000000000000E+000	10.9374	10.9374	0.0000000E+000	0.000000000000000E+000	0.00818286
1	1	0	1	0	0	0	6163.26	10	0.819688	10.0005	41.015	41.015	0	11.393	11	0.00906833	0.000000000000000E+000	4.90911e+08	0.000000000000000E+000	0.000000000000000E+000	11.393	11.393	0.0000000E+000	0.000000000000000E+000	0.00819727
1	1	0	1	0	0	0	6327.26	10	0.821116	10.001	42.6552	42.6552	0	11.8487	11	0.00944213	0.000000000000000E+000	5.01964e+08	0.000000000000000E+000	0.000000000000000E+000	11.8487	11.8487	0.0000000E+000	0.000000000000000E+000	0.00821202
1	1	0	1	0	0	0	6491.26	10	0.822532	10.001	44.2954	44.2954	0	12.3043	11	0.00981657	0.000000000000000E+000	5.12724e+08	0.000000000000000E+000	0.000000000000000E+000	12.3043	12.3043	0.0000000E+000	0.000000000000000E+000	0.00822618
1	1	0	1	0	0	0	6655.26	10	0.823946	10.0019	45.9356	45.9356	0	12.7599	11	0.0101916	0.000000000000000E+000	5.23147e+08	0.000000000000000E+000	0.000000000000000E+000	12.7599	12.7599	0.0000000E+000	0.000000000000000E+000	0.00824106
1	1	0	1	0	0	0	6819.26	10	0.825371	10.0014	47.5758	47.5758	0	13.2155	11	0.0105674	0.000000000000000E+000	5.33173e+08	0.000000000000000E+000	0.000000000000000E+000	13.2155	13.2155	0.0000000E+000	0.000000000000000E+000	0.00825489
1	1	0	1	0	0	0	6983.26	10	0.826706	10.0014	49.2161	49.2161	0	13.6711	11	0.0109437	0.000000000000000E+000	5.43424e+08	0.000000000000000E+000	0.000000000000000E+000	13.6711	13.6711	0.0000000E+000	0.000000000000000E+000	0.00826824
1	1	0	1	0	0	0	7147.26	10	0.828056	10.0016	50.8563	50.8563	0	14.1267	11	0.0113207	0.000000000000000E+000	5.53287e+08	0.000000000000000E+000	0.000000000000000E+000	14.1267	14.1267	0.0000000E+000	0.000000000000000E+000	0.0082819
1	1	0	1	0	0	0	7311.26	10	0.8293	10.0011	52.4965	52.4965	0	14.5824	11	0.0116983	0.000000000000000E+000	5.63506e+08	0.000000000000000E+000	0.000000000000000E+000	14.5824	14.5824	0.0000000E+000	0.000000000000000E+000	0.00829392
1	1	0	1	0	0	0	7475.26	10	0.8307	10.0014	54.1367	54.1367	0	15.038	11	0.0120764	0.000000000000000E+000	5.72507e+08	0.000000000000000E+000	0.000000000000000E+000	15.038	15.038	0.0000000E+000	0.000000000000000E+000	0.00830814
1	1	0	1	0	0	0	7639.26	10	0.831992	10.0007	55.7769	55.7769	0	15.4936	11	0.0124552	0.000000000000000E+000	5.81902e+08	0.000000000000000E+000	0.000000000000000E+000	15.4936	15.4936	0.0000000E+000	0.000000000000000E+000	0.00832053
1	1	0	1	0	0	0	7803.26	10	0.833344	10.0015	57.4172	57.4172	0	15.9492	11	0.0128346	0.000000000000000E+000	5.90681e+08	0.000000000000000E+000	0.000000000000000E+000	15.9492	15.9492	0.0000000E+000	0.000000000000000E+000	0.00833469
1	1	0	1	0	0	0	7967.26	10	0.834714	10.001	59.0574	59.0574	0	16.4048	11	0.0132146	0.000000000000000E+000	5.9911e+08	0.000000000000000E+000	0.000000000000000E+000	16.4048	16.4048	0.0000000E+000	0.000000000000000E+000	0.00834797
1	1	0	1	0	0	0	8131.26	10	0.836092	10.001	60.6976	60.6976	0	16.8604	11	0.0135952	0.000000000000000E+000	6.07264e+08	0.000000000000000E+000	0.000000000000000E+000	16.8604	16.8604	0.0000000E+000	0.000000000000000E+000	0.0083618
1	1	0	1	0	0	0	8295.26	10	0.837468	10.0011	62.3378	62.3378	0	17.3161	11	0.0139765	0.000000000000000E+000	6.15204e+08	0.000000000000000E+000	0.000000000000000E+000	17.3161	17.3161	0.0000000E+000	0.000000000000000E+000	0.00837561
1	1	0	1	0	0	0	8459.26	10	0.838947	10.001	63.978	63.978	0	17.7717	11	0.0143583	0.000000000000000E+000	6.2231e+08	0.000000000000000E+000	0.000000000000000E+000	17.7717	17.7717	0.0000000E+000	0.000000000000000E+000	0.00839035
1	1	0	1	0	0	0	8623.26	10	0.840253	10.0019	65.6183	65.6183	0	18.2273	11	0.0147409	0.000000000000000E+000	6.30258e+08	0.000000000000000E+000	0.000000000000000E+000	18.2273	18.2273	0.0000000E+000	0.000000000000000E+000	0.0084041
1	1	0	1	0	0	0	8787.26	10	0.841699	10.0016	67.2585	67.2585	0	18.6829	11	0.015124	0.000000000000000E+000	6.37158e+08	0.000000000000000E+000	0.000000000000000E+000	18.6829	18.6829	0.0000000E+000	0.000000000000000E+000	0.00841836
1	1	0	1	0	0	0	8951.26	10	0.843137	10.0014	68.8987	68.8987	0	19.1385	11	0.0155079	0.000000000000000E+000	6.43926e+08	0.000000000000000E+000	0.000000000000000E+000	19.1385	19.1385	0.0000000E+000	0.000000000000000E+000	0.00843252
1	1	0	1	0	0	0	9115.26	10	0.84441	10.001	70.5389	70.5389	0	19.5941	11	0.0158923	0.000000000000000E+000	6.51505e+08	0.000000000000000E+000	0.000000000000000E+000	19.5941	19.5941	0.0000000E+000	0.000000000000000E+000	0.00844499
1	1	0	1	0	0	0	9262.31	10	0.845517	10.0019	72.0097	72.0097	0	20.0027	11	0.0162375	0.000000000000000E+000	6.5836e+08	0.000000000000000E+000	0.000000000000000E+000	20.0027	20.0027	0.0000000E+000	0.000000000000000E+000	0.00845675