File: Data_Lola/CoNiFeNx_400ºC_24h_13102022/Electrodes_20012023/Set 2/2023_01_23_CoNiFeNx_400ºC_24h_electrode1__set2_20012023_1_01_CV_C01.mpt
EC-Lab ASCII FILE
Nb header lines : 57

Cyclic Voltammetry

Run on channel : 1 (SN 21648)
User :
CE vs. WE compliance from -10 V to 10 V
Electrode connection : standard
Potential control : Ewe
Ewe ctrl range : min = -2.50 V, max = 2.50 V
Safety Limits :
	Do not start on E overload
Acquisition started on : 01/23/2023 11:53:57.913
Loaded Setting File :  C:\Users\grupogalan\Documents\EC-Lab\Data\Lole Jurado\2023_01_20_CoNiFeNx_400ºC_24h_electrode2_19012023_1.mps
Saved on :
	File : 2023_01_23_CoNiFeNx_400ºC_24h_electrode1__set2_20012023_1_01_CV_C01.mpr
	Directory : C:\Users\grupogalan\Documents\EC-Lab\Data\Lole Jurado\
	Host : 169.254.104.159
Device : VSP (SN 1176)
Address : USB
EC-Lab for windows v11.46 (software)
Internet server v11.40 (firmware)
Command interpretor v11.40 (firmware)
Electrode material :
Initial state :
Electrolyte :
Comments :
Electrode surface area : 0.000 cm²
Characteristic mass : 0.001 g
Equivalent Weight : 0.000 g/eq.
Density : 0.000 g/cm3
Volume (V) : 0.001 cm³
Cycle Definition : Charge/Discharge alternance
Ei (V)              0.000
vs.                 Eoc
dE/dt               10.000
dE/dt unit          mV/s
E1 (V)              1.000
vs.                 Ref
Step percent        50
N                   10
E range min (V)     -2.500
E range max (V)     2.500
I Range             Auto
I Range min         Unset
I Range max         Unset
I Range init        Unset
Bandwidth           5
E2 (V)              0.000
vs.                 Ref
nc cycles           2
Reverse Scan        1
Ef (V)              0.000
vs.                 Eoc

mode	ox/red	error	control changes	counter inc.	time/s	control/V	Ewe/V	<I>/mA	cycle number	(Q-Qo)/C	I Range	P/W
2	0	0	0	0	0.000000000000000E+000	-0.091002	-0.0921973	-0.00113689	1	0.0000000E+000	13	1.04818e-07
2	1	0	1	0	4.3552	-0.0474512	-0.0462323	0.00197762	1	7.26248e-06	13	-9.14301e-08
2	1	0	1	0	8.7552	-0.00345038	-0.00317686	0.00310489	1	2.0205e-05	13	-9.86379e-09
2	1	0	0	0	13.1554	0.0405504	0.0386279	0.00453599	1	3.8829e-05	13	1.75216e-07
2	1	0	0	0	17.5554	0.0845513	0.0834951	0.00616913	1	6.42003e-05	13	5.15092e-07
2	1	0	1	0	21.9556	0.128552	0.128418	0.00895814	1	9.90423e-05	13	1.15039e-06
2	1	0	1	0	26.3556	0.172553	0.172414	0.0149016	1	0.000153326	13	2.56924e-06
2	1	0	1	0	30.7556	0.216554	0.2152	0.0204148	1	0.000235166	13	4.39326e-06
2	1	0	0	0	35.1558	0.260555	0.26139	0.0259861	1	0.000340653	13	6.79249e-06
2	1	0	0	0	39.5558	0.304555	0.303096	0.0349652	1	0.000477384	13	1.05978e-05
2	1	0	1	0	43.956	0.348556	0.348135	0.0528477	1	0.00067124	13	1.83981e-05
2	1	0	1	0	48.386	0.392857	0.394855	0.0888961	1	0.000983076	12	3.5101e-05
2	1	0	1	0	52.786	0.436858	0.437545	0.148549	1	0.00149934	12	6.49969e-05
2	1	0	0	0	57.1862	0.480859	0.479454	0.250546	1	0.00236672	12	0.000120125
2	1	0	0	0	61.5862	0.524859	0.524211	0.373083	1	0.00374535	12	0.000195574
2	1	0	1	0	65.9864	0.56886	0.570038	0.518327	1	0.00570665	12	0.000295466
2	1	0	1	0	70.3864	0.612861	0.61363	0.763614	1	0.00845841	12	0.000468577
2	1	0	0	0	74.8166	0.657162	0.65618	1.82839	1	0.0136307	11	0.00119975
2	1	0	0	0	79.2166	0.701163	0.700762	5.06358	1	0.0278947	11	0.00354836
2	1	0	0	0	83.6166	0.745163	0.744833	10.6851	1	0.0617488	11	0.0079586
2	1	0	1	0	88.0468	0.789464	0.789831	18.4383	1	0.125671	10	0.0145632
2	1	0	1	0	92.4468	0.833465	0.833539	27.7328	1	0.226812	10	0.0231164
2	1	0	0	0	96.847	0.877466	0.878167	38.2721	1	0.37164	10	0.0336093
2	1	0	0	0	101.247	0.921467	0.921426	50.0431	1	0.565276	10	0.046111
2	1	0	0	0	105.647	0.965468	0.965015	62.651	1	0.812784	10	0.0604592
2	1	0	1	0	109.958	0.991468	0.991849	70.0463	1	1.10878	10	0.0694753
2	1	0	0	0	114.358	0.947467	0.94624	55.6362	1	1.38454	10	0.0526452
2	1	0	0	0	118.758	0.903466	0.901927	43.018	1	1.60082	10	0.0387991
2	1	0	1	0	123.158	0.859466	0.860415	31.6999	1	1.76439	10	0.027275
2	1	0	1	0	127.558	0.815465	0.816288	22.1422	1	1.88214	10	0.0180744
2	1	0	1	0	131.958	0.771464	0.770787	14.3297	1	1.96165	10	0.0110452
2	1	0	0	0	136.358	0.727463	0.727535	8.26963	1	2.01068	10	0.00601645
2	1	0	0	0	140.788	0.683162	0.682547	3.97294	1	2.03711	11	0.00271172
2	1	0	1	0	145.188	0.639162	0.637184	1.43112	1	2.04839	11	0.000911888
2	1	0	1	0	149.618	0.594861	0.594986	0.305508	1	2.05178	12	0.000181773
2	1	0	1	0	154.018	0.55086	0.549411	-0.00826357	1	2.05226	12	-4.5401e-06
2	0	0	0	0	158.419	0.506859	0.504915	-0.0799884	1	2.05201	12	-4.03874e-05
2	0	0	0	0	162.819	0.462858	0.463537	-0.101113	1	2.0516	12	-4.68694e-05
2	0	0	1	0	167.219	0.418857	0.42063	-0.107539	1	2.05113	12	-4.5234e-05
2	0	0	1	0	171.619	0.374857	0.37594	-0.108856	1	2.05064	12	-4.09235e-05
2	0	0	0	0	176.019	0.330856	0.330809	-0.108344	1	2.05016	12	-3.58412e-05
2	0	0	0	0	180.419	0.286855	0.285808	-0.099545	1	2.04969	12	-2.84507e-05
2	0	0	0	0	184.819	0.242854	0.242925	-0.0845445	1	2.04928	12	-2.0538e-05
2	0	0	1	0	189.219	0.198853	0.198959	-0.0698193	1	2.04894	12	-1.38912e-05
2	0	0	1	0	193.619	0.154853	0.155034	-0.0562439	1	2.04866	12	-8.71974e-06
2	0	0	0	0	198.019	0.110852	0.110944	-0.0464163	1	2.04844	12	-5.1496e-06
2	0	0	0	0	202.419	0.0668509	0.0660268	-0.0392651	1	2.04825	12	-2.59255e-06
2	0	0	0	0	206.819	0.0228501	0.0215213	-0.0345383	1	2.04808	12	-7.43311e-07
2	0	0	1	1	211.06	0.0195509	0.0197103	-0.0250992	2	2.04795	12	-4.94712e-07
2	0	0	0	1	215.46	0.0635509	0.0623365	-0.0177657	2	2.04786	12	-1.10745e-06
2	0	0	0	1	219.86	0.107552	0.108357	-0.0127391	2	2.0478	12	-1.38036e-06
2	1	0	1	1	224.26	0.151553	0.152143	-0.00793526	2	2.04775	12	-1.20729e-06
2	1	0	1	1	228.66	0.195553	0.195517	-0.00222462	2	2.04773	12	-4.34951e-07
2	1	0	0	1	233.061	0.239554	0.240691	0.00591007	2	2.04774	12	1.4225e-06
2	1	0	0	1	237.461	0.283555	0.28488	0.0180991	2	2.0478	12	5.15606e-06
2	1	0	0	1	241.861	0.327556	0.328335	0.0382449	2	2.04792	12	1.25571e-05
2	1	0	1	1	246.261	0.371557	0.371182	0.0667421	2	2.04815	12	2.47735e-05
2	1	0	1	1	250.661	0.415557	0.417269	0.110824	2	2.04854	12	4.62435e-05
2	1	0	0	1	255.061	0.459558	0.459742	0.155829	2	2.04914	12	7.1641e-05
2	1	0	0	1	259.461	0.503559	0.502153	0.197738	2	2.04992	12	9.92946e-05
2	1	0	1	1	263.861	0.54756	0.54847	0.244821	2	2.0509	12	0.000134277
2	1	0	1	1	268.261	0.591561	0.593092	0.351615	2	2.05217	12	0.00020854
2	1	0	1	1	272.676	0.635711	0.634884	1.00804	2	2.05479	12	0.000639991
2	1	0	0	1	277.091	0.679862	0.681377	3.32368	2	2.0636	11	0.00226468
2	1	0	0	1	281.491	0.723863	0.723583	7.83197	2	2.08736	11	0.00566709
2	1	0	1	1	285.922	0.768164	0.766794	14.5739	2	2.13625	10	0.0111752
2	1	0	1	1	290.322	0.812165	0.811016	23.2056	2	2.21871	10	0.0188201
2	1	0	1	1	294.722	0.856166	0.85674	33.4438	2	2.34288	10	0.0286526
2	1	0	0	1	299.122	0.900166	0.901231	44.8054	2	2.51468	10	0.04038
2	1	0	0	1	303.522	0.944167	0.945509	57.4583	2	2.73981	10	0.0543273
2	1	0	1	1	307.922	0.988168	0.987109	71.8103	2	3.02499	10	0.0708846
2	1	0	1	1	312.162	0.969467	0.968062	64.494	2	3.32573	10	0.0624342
2	1	0	0	1	316.563	0.925467	0.926728	50.4184	2	3.57783	10	0.0467241
2	1	0	0	1	320.963	0.881466	0.882929	38.1485	2	3.772	10	0.0336824
2	1	0	1	1	325.363	0.837465	0.837566	27.4272	2	3.91556	10	0.0229721
2	1	0	1	1	329.763	0.793464	0.794276	18.433	2	4.01573	10	0.0146409
2	1	0	0	1	334.163	0.749464	0.749134	11.2946	2	4.08042	10	0.00846116
2	1	0	0	1	338.563	0.705463	0.705285	6.04487	2	4.11784	10	0.00426335
2	1	0	0	1	342.993	0.661162	0.661698	2.56818	2	4.13622	11	0.00169936
2	1	0	1	1	347.393	0.617161	0.617688	0.759345	2	4.14299	11	0.000469038
2	1	0	1	1	351.823	0.57286	0.573437	0.0955616	2	4.14456	12	5.47985e-05
2	0	0	0	1	356.223	0.52886	0.526334	-0.0647071	2	4.14453	12	-3.40575e-05
2	0	0	0	1	360.623	0.484859	0.485469	-0.102736	2	4.14413	12	-4.9875e-05
2	0	0	1	1	365.023	0.440859	0.441014	-0.11299	2	4.14364	12	-4.98302e-05
2	0	0	1	1	369.424	0.396857	0.396195	-0.116467	2	4.14313	12	-4.61438e-05
2	0	0	1	1	373.824	0.352856	0.351645	-0.116597	2	4.1426	12	-4.10008e-05
2	0	0	0	1	378.224	0.308855	0.309619	-0.112691	2	4.14209	12	-3.48912e-05
2	0	0	0	1	382.624	0.264855	0.265715	-0.0993174	2	4.14162	12	-2.63901e-05
2	0	0	1	1	387.024	0.220854	0.221669	-0.0837013	2	4.14121	12	-1.8554e-05
2	0	0	1	1	391.424	0.176853	0.174321	-0.0684509	2	4.14088	12	-1.19324e-05
2	0	0	1	1	395.824	0.132852	0.134088	-0.055927	2	4.1406	12	-7.49914e-06
2	0	0	0	1	400.224	0.0888513	0.0888051	-0.0468446	2	4.14037	12	-4.16003e-06
2	0	0	0	1	404.624	0.0448505	0.0440525	-0.0400419	2	4.14018	12	-1.76395e-06
2	0	0	1	1	409.024	0.000849706	0.000983299	-0.035522	2	4.14001	12	-3.49287e-08
2	1	0	0	0	413.265	0.0415505	0.0419947	-0.0218269	3	4.1399	12	-9.16613e-07
2	0	0	0	0	417.665	0.0855513	0.0840254	-0.0166463	3	4.13981	12	-1.39871e-06
2	0	0	1	0	422.065	0.129552	0.129135	-0.0120571	3	4.13975	12	-1.557e-06
2	0	0	1	0	426.465	0.173553	0.172828	-0.0072459	3	4.13971	12	-1.2523e-06
2	1	0	1	0	430.865	0.217554	0.218144	-0.000596306	3	4.1397	12	-1.30081e-07
2	1	0	0	0	435.265	0.261555	0.262269	0.00937582	3	4.13972	12	2.45899e-06
2	1	0	0	0	439.665	0.305555	0.305396	0.025731	3	4.1398	12	7.85816e-06
2	1	0	1	0	444.066	0.349556	0.348774	0.049658	3	4.13996	12	1.73194e-05
2	1	0	1	0	448.466	0.393557	0.393352	0.084843	3	4.14026	12	3.33731e-05
2	1	0	1	0	452.866	0.437558	0.435366	0.132795	3	4.14074	12	5.78143e-05
2	1	0	0	0	457.266	0.481559	0.48038	0.173175	3	4.14143	12	8.31898e-05
2	1	0	0	0	461.666	0.525559	0.524038	0.210898	3	4.14228	12	0.000110519
2	1	0	1	0	466.066	0.56956	0.56832	0.264104	3	4.14332	12	0.000150096
2	1	0	1	0	470.466	0.613561	0.612917	0.530503	3	4.1449	12	0.000325155
2	1	0	0	0	474.896	0.657862	0.658784	1.88153	3	4.14965	11	0.00123952
2	1	0	0	0	479.296	0.701863	0.700871	5.21684	3	4.16447	11	0.00365633
2	1	0	0	0	483.711	0.746014	0.745008	10.88	3	4.19912	11	0.0081057
2	1	0	1	0	488.126	0.790164	0.789178	18.7684	3	4.26379	10	0.0148117
2	1	0	1	0	492.526	0.834165	0.834912	28.6564	3	4.36752	10	0.0239256
2	1	0	0	0	496.927	0.878166	0.879386	40.1845	3	4.51849	10	0.0353376
2	1	0	0	0	501.327	0.922167	0.923123	53.283	3	4.72409	10	0.0491868
2	1	0	0	0	505.727	0.966168	0.965306	67.602	3	4.98956	10	0.0652566
2	1	0	1	0	509.967	0.991468	0.990679	74.7288	3	5.30124	10	0.0740322
2	1	0	0	0	514.367	0.947467	0.947062	59.2348	3	5.59567	10	0.056099
2	1	0	0	0	518.767	0.903466	0.904566	45.4378	3	5.82496	10	0.0411015
2	1	0	1	0	523.168	0.859466	0.86035	33.6246	3	5.9978	10	0.0289289
2	1	0	1	0	527.568	0.815465	0.815086	23.2269	3	6.12207	10	0.0189319
2	1	0	1	0	531.968	0.771464	0.77015	14.7826	3	6.20486	10	0.0113848
2	1	0	0	0	536.368	0.727463	0.727491	8.3772	3	6.25498	10	0.00609434
2	1	0	0	0	540.798	0.683162	0.684106	3.9806	3	6.28162	11	0.00272315
2	1	0	1	0	545.198	0.639162	0.637493	1.4475	3	6.29293	11	0.000922768
2	1	0	1	0	549.628	0.594861	0.593525	0.317834	3	6.29641	12	0.000188643
2	1	0	1	0	554.028	0.55086	0.550514	-0.0135973	3	6.29689	12	-7.48549e-06
2	0	0	0	0	558.428	0.506859	0.50851	-0.0895646	3	6.29661	12	-4.55445e-05
2	0	0	0	0	562.828	0.462858	0.463546	-0.110042	3	6.29616	12	-5.10096e-05
2	0	0	1	0	567.228	0.418857	0.416801	-0.116048	3	6.29565	12	-4.83689e-05
2	0	0	1	0	571.628	0.374857	0.374074	-0.11831	3	6.29512	12	-4.42568e-05
2	0	0	0	0	576.029	0.330856	0.3309	-0.117605	3	6.2946	12	-3.89154e-05
2	0	0	0	0	580.429	0.286855	0.285484	-0.108871	3	6.29409	12	-3.10809e-05
2	0	0	0	0	584.829	0.242854	0.242372	-0.093704	3	6.29364	12	-2.27112e-05
2	0	0	1	0	589.229	0.198853	0.198756	-0.0782544	3	6.29326	12	-1.55535e-05
2	0	0	1	0	593.629	0.154853	0.155316	-0.0641467	3	6.29295	12	-9.96298e-06
2	0	0	0	0	598.029	0.110852	0.109905	-0.0525829	3	6.29269	12	-5.77914e-06
2	0	0	0	0	602.429	0.0668509	0.0668308	-0.044799	3	6.29247	12	-2.99395e-06
2	0	0	0	0	606.829	0.0228501	0.0240448	-0.0399657	3	6.29228	12	-9.60969e-07
2	0	0	0	1	611.07	-0.0195507	-0.0204055	-0.0354131	3	6.29212	12	7.2262e-07
2	0	0	0	1	615.47	-0.0635515	-0.0628839	-0.0322752	3	6.29197	12	2.02959e-06
2	0	0	0	1	618.228	-0.091202	-0.0900017	-0.0354978	3	6.29188	12	3.19486e-06